OOIBase32 Version 2.0.6.5 Data File
++++++++++++++++++++++++++++++++++++
Date: 03-23-2011, 12:15:51
User: Valued Ocean Optics Customer
Spectrometer Serial Number: USB4C01507
Spectrometer Channel: Master
Integration Time (msec): 62
Spectra Averaged: 20
Boxcar Smoothing: 5
Correct for Electrical Dark: Enabled
Time Normalized: Disabled
Dual-beam Reference: Disabled
Reference Channel: Master
Temperature: Not acquired
Spectrometer Type: S4000
ADC Type: USB4000
Number of Pixels in File: 3648
Graph Title: 
>>>>>Begin Spectral Data<<<<<
178.53	95.380
178.74	675.528
178.96	-51.185
179.18	9.240
179.39	-417.232
179.61	380.121
179.82	-247.695
180.04	-16.442
180.25	40.181
180.47	94.571
180.69	429.766
180.90	137.478
181.12	124.415
181.33	5002.289
181.55	373.843
181.76	11.845
181.98	44.677
182.20	71.368
182.41	36.479
182.63	3.335
182.84	32.963
183.06	34.180
183.27	30.712
183.49	28.510
183.71	27.457
183.92	41.831
184.14	46.575
184.35	37.643
184.57	35.771
184.78	29.658
185.00	29.992
185.21	30.125
185.43	31.135
185.65	38.268
185.86	41.643
186.08	42.458
186.29	32.597
186.51	31.105
186.72	37.624
186.94	44.116
187.15	53.880
187.37	59.675
187.58	51.994
187.80	51.069
188.02	44.328
188.23	45.626
188.45	42.359
188.66	41.391
188.88	27.458
189.09	25.766
189.31	29.946
189.52	23.383
189.74	23.654
189.95	24.192
190.17	25.653
190.38	25.373
190.60	24.296
190.82	22.137
191.03	28.808
191.25	36.897
191.46	30.807
191.68	20.608
191.89	23.745
192.11	24.887
192.32	27.149
192.54	25.638
192.75	22.798
192.97	26.549
193.18	25.193
193.40	20.258
193.61	24.385
193.83	26.869
194.04	32.590
194.26	33.575
194.48	30.487
194.69	31.446
194.91	24.467
195.12	23.143
195.34	18.873
195.55	23.133
195.77	28.894
195.98	31.537
196.20	34.275
196.41	30.425
196.63	37.151
196.84	42.112
197.06	40.310
197.27	43.734
197.49	39.663
197.70	39.752
197.92	45.948
198.13	46.632
198.35	36.832
198.56	33.718
198.78	28.797
198.99	21.129
199.21	5.168
199.42	3.023
199.64	3.527
199.85	9.376
200.07	5.642
200.28	3.452
200.50	-5.269
200.71	-2.193
200.93	-0.137
201.14	0.591
201.36	1.947
201.57	15.926
201.79	16.558
202.00	18.713
202.22	13.078
202.43	18.092
202.65	16.981
202.86	16.177
203.08	13.780
203.29	13.958
203.51	8.203
203.72	9.592
203.94	11.631
204.15	9.431
204.37	6.432
204.58	10.005
204.80	10.520
205.01	13.847
205.22	14.617
205.44	21.458
205.65	20.261
205.87	28.821
206.08	28.918
206.30	27.584
206.51	30.702
206.73	35.952
206.94	36.716
207.16	34.591
207.37	29.946
207.59	30.138
207.80	25.636
208.02	26.800
208.23	25.176
208.45	20.732
208.66	18.200
208.88	15.687
209.09	6.731
209.30	7.969
209.52	4.980
209.73	3.378
209.95	11.997
210.16	12.980
210.38	13.898
210.59	13.407
210.81	18.114
211.02	18.430
211.24	16.002
211.45	19.685
211.66	17.401
211.88	19.232
212.09	22.119
212.31	20.237
212.52	18.831
212.74	16.498
212.95	16.132
213.17	14.824
213.38	12.281
213.60	13.699
213.81	10.381
214.02	12.799
214.24	7.583
214.45	2.072
214.67	-2.779
214.88	-2.944
215.10	-3.275
215.31	0.745
215.53	1.661
215.74	2.622
215.95	5.753
216.17	3.777
216.38	1.728
216.60	7.276
216.81	12.206
217.03	15.273
217.24	16.672
217.45	17.064
217.67	16.348
217.88	15.083
218.10	15.754
218.31	16.038
218.53	18.873
218.74	18.483
218.95	17.884
219.17	15.064
219.38	16.126
219.60	13.679
219.81	13.181
220.03	8.942
220.24	8.966
220.45	9.262
220.67	5.739
220.88	7.906
221.10	9.874
221.31	10.184
221.53	10.222
221.74	9.049
221.95	8.850
222.17	9.122
222.38	9.606
222.60	10.896
222.81	10.752
223.02	13.450
223.24	13.808
223.45	13.080
223.67	12.568
223.88	12.423
224.09	11.465
224.31	13.332
224.52	12.591
224.74	12.463
224.95	11.287
225.16	10.598
225.38	8.647
225.59	8.318
225.81	7.396
226.02	7.241
226.23	7.809
226.45	8.073
226.66	7.204
226.88	6.791
227.09	6.378
227.30	5.727
227.52	5.420
227.73	4.501
227.95	3.950
228.16	3.974
228.37	3.755
228.59	3.684
228.80	3.467
229.02	3.422
229.23	3.294
229.44	3.296
229.66	3.290
229.87	3.190
230.08	3.359
230.30	3.351
230.51	3.130
230.73	3.189
230.94	3.115
231.15	3.570
231.37	3.793
231.58	4.151
231.80	4.094
232.01	3.914
232.22	4.137
232.44	4.460
232.65	4.076
232.86	4.596
233.08	4.242
233.29	3.482
233.51	2.916
233.72	3.028
233.93	2.772
234.15	3.176
234.36	3.188
234.57	3.159
234.79	3.244
235.00	3.307
235.21	3.406
235.43	3.858
235.64	4.394
235.86	4.937
236.07	4.575
236.28	5.301
236.50	5.508
236.71	5.931
236.92	6.221
237.14	5.551
237.35	5.888
237.56	5.900
237.78	5.863
237.99	6.143
238.20	5.499
238.42	5.680
238.63	5.113
238.84	4.808
239.06	4.486
239.27	3.686
239.48	4.351
239.70	3.747
239.91	3.852
240.13	3.766
240.34	3.391
240.55	3.210
240.77	3.206
240.98	3.153
241.19	3.379
241.41	3.173
241.62	3.357
241.83	3.398
242.05	3.521
242.26	3.387
242.47	3.227
242.69	3.260
242.90	3.351
243.11	3.123
243.33	2.993
243.54	2.921
243.75	3.264
243.97	3.215
244.18	2.948
244.39	2.963
244.61	2.985
244.82	3.194
245.03	3.063
245.24	2.910
245.46	3.397
245.67	3.681
245.88	3.714
246.10	3.446
246.31	3.329
246.52	3.398
246.74	3.298
246.95	3.299
247.16	3.292
247.38	3.253
247.59	3.305
247.80	3.256
248.02	3.251
248.23	3.191
248.44	3.164
248.66	3.173
248.87	3.157
249.08	3.225
249.29	3.212
249.51	3.464
249.72	3.615
249.93	3.721
250.15	3.838
250.36	4.089
250.57	4.127
250.79	4.544
251.00	4.934
251.21	4.917
251.42	4.562
251.64	4.656
251.85	4.367
252.06	4.270
252.28	4.075
252.49	4.062
252.70	4.045
252.91	4.050
253.13	3.944
253.34	3.689
253.55	3.587
253.77	3.960
253.98	3.703
254.19	3.966
254.40	3.937
254.62	4.143
254.83	4.146
255.04	4.108
255.26	3.787
255.47	3.824
255.68	4.174
255.89	4.191
256.11	3.469
256.32	3.681
256.53	3.272
256.75	3.455
256.96	3.367
257.17	3.303
257.38	3.370
257.60	3.683
257.81	3.876
258.02	3.759
258.23	3.708
258.45	4.119
258.66	3.632
258.87	3.466
259.09	3.293
259.30	3.223
259.51	3.225
259.72	3.145
259.94	3.098
260.15	2.973
260.36	3.000
260.57	2.975
260.79	2.907
261.00	3.029
261.21	3.064
261.42	3.103
261.64	3.188
261.85	3.263
262.06	3.375
262.27	3.436
262.49	3.579
262.70	3.418
262.91	3.559
263.12	3.542
263.34	3.490
263.55	3.430
263.76	3.450
263.97	3.458
264.19	3.305
264.40	3.244
264.61	3.353
264.82	3.395
265.04	3.455
265.25	3.232
265.46	3.169
265.67	3.142
265.88	2.894
266.10	2.775
266.31	2.865
266.52	2.880
266.73	2.860
266.95	2.836
267.16	2.851
267.37	2.801
267.58	2.735
267.80	2.760
268.01	2.715
268.22	2.892
268.43	2.903
268.64	2.674
268.86	2.676
269.07	2.705
269.28	2.493
269.49	2.432
269.71	2.600
269.92	2.760
270.13	2.829
270.34	2.870
270.55	2.998
270.77	3.145
270.98	3.219
271.19	3.317
271.40	3.372
271.61	3.580
271.83	3.451
272.04	3.386
272.25	3.280
272.46	3.243
272.68	3.252
272.89	3.129
273.10	3.037
273.31	3.116
273.52	3.115
273.74	3.033
273.95	2.973
274.16	2.966
274.37	2.989
274.58	3.028
274.80	3.003
275.01	2.969
275.22	3.074
275.43	3.152
275.64	2.973
275.86	2.732
276.07	2.754
276.28	2.805
276.49	2.903
276.70	2.867
276.91	2.934
277.13	2.857
277.34	2.859
277.55	3.064
277.76	2.970
277.97	2.981
278.19	3.105
278.40	3.188
278.61	3.151
278.82	3.108
279.03	3.129
279.24	3.240
279.46	3.374
279.67	3.264
279.88	2.878
280.09	3.027
280.30	3.102
280.52	3.129
280.73	3.077
280.94	2.937
281.15	2.888
281.36	2.766
281.57	2.470
281.79	2.431
282.00	2.727
282.21	2.789
282.42	2.612
282.63	2.449
282.84	2.407
283.06	2.402
283.27	2.440
283.48	2.508
283.69	2.538
283.90	2.691
284.11	2.600
284.32	2.400
284.54	2.438
284.75	2.610
284.96	2.722
285.17	2.637
285.38	2.591
285.59	2.664
285.81	2.636
286.02	2.762
286.23	2.719
286.44	2.765
286.65	2.711
286.86	2.753
287.07	2.700
287.29	2.769
287.50	2.871
287.71	2.860
287.92	2.841
288.13	2.950
288.34	2.778
288.55	2.864
288.77	2.776
288.98	2.884
289.19	2.852
289.40	2.855
289.61	2.926
289.82	2.983
290.03	2.891
290.24	2.954
290.46	2.939
290.67	2.962
290.88	2.934
291.09	3.231
291.30	3.247
291.51	3.283
291.72	3.259
291.93	3.119
292.15	3.076
292.36	3.148
292.57	3.099
292.78	3.148
292.99	3.108
293.20	3.004
293.41	2.824
293.62	2.829
293.84	2.871
294.05	2.963
294.26	2.965
294.47	2.973
294.68	3.026
294.89	3.145
295.10	3.035
295.31	3.197
295.52	3.328
295.73	3.359
295.95	3.352
296.16	3.355
296.37	3.301
296.58	3.333
296.79	3.304
297.00	3.401
297.21	3.266
297.42	3.347
297.63	3.307
297.84	3.410
298.06	3.351
298.27	3.460
298.48	3.505
298.69	3.517
298.90	3.568
299.11	3.660
299.32	3.558
299.53	3.677
299.74	3.738
299.95	3.797
300.16	3.719
300.38	3.815
300.59	3.689
300.80	3.650
301.01	3.571
301.22	3.628
301.43	3.641
301.64	3.664
301.85	3.651
302.06	3.570
302.27	3.481
302.48	3.393
302.69	3.435
302.91	3.471
303.12	3.399
303.33	3.594
303.54	3.561
303.75	3.630
303.96	3.708
304.17	3.808
304.38	3.807
304.59	4.045
304.80	4.166
305.01	4.125
305.22	4.278
305.43	4.431
305.64	4.421
305.85	4.459
306.06	4.441
306.28	4.555
306.49	4.463
306.70	4.557
306.91	4.471
307.12	4.451
307.33	4.447
307.54	4.274
307.75	4.155
307.96	4.137
308.17	4.178
308.38	4.247
308.59	4.288
308.80	4.353
309.01	4.425
309.22	4.468
309.43	4.388
309.64	4.385
309.85	4.475
310.06	4.539
310.27	4.550
310.48	4.476
310.70	4.380
310.91	4.341
311.12	4.333
311.33	4.272
311.54	4.219
311.75	4.312
311.96	4.353
312.17	4.314
312.38	4.330
312.59	4.384
312.80	4.376
313.01	4.390
313.22	4.439
313.43	4.518
313.64	4.570
313.85	4.532
314.06	4.518
314.27	4.627
314.48	4.642
314.69	4.672
314.90	4.666
315.11	4.817
315.32	4.856
315.53	4.837
315.74	4.802
315.95	4.738
316.16	4.819
316.37	4.896
316.58	4.919
316.79	4.957
317.00	5.042
317.21	5.111
317.42	5.148
317.63	5.196
317.84	5.163
318.05	5.232
318.26	5.248
318.47	5.241
318.68	5.181
318.89	5.093
319.10	5.071
319.31	5.020
319.52	4.959
319.73	4.966
319.94	4.973
320.15	5.014
320.36	4.980
320.57	5.110
320.78	5.300
320.99	5.334
321.20	5.400
321.41	5.429
321.62	5.498
321.83	5.537
322.04	5.540
322.25	5.552
322.46	5.596
322.67	5.673
322.88	5.619
323.09	5.544
323.30	5.635
323.51	5.628
323.72	5.715
323.93	5.724
324.14	5.737
324.35	5.661
324.56	5.670
324.77	5.666
324.98	5.636
325.19	5.705
325.40	5.664
325.61	5.662
325.82	5.705
326.03	5.678
326.24	5.605
326.45	5.627
326.65	5.717
326.86	5.743
327.07	5.802
327.28	5.899
327.49	5.875
327.70	5.946
327.91	5.823
328.12	5.809
328.33	5.891
328.54	6.010
328.75	6.034
328.96	6.055
329.17	6.103
329.38	6.096
329.59	6.085
329.80	6.155
330.01	6.153
330.22	6.296
330.43	6.388
330.64	6.374
330.85	6.343
331.05	6.318
331.26	6.370
331.47	6.366
331.68	6.330
331.89	6.316
332.10	6.308
332.31	6.349
332.52	6.321
332.73	6.312
332.94	6.384
333.15	6.347
333.36	6.349
333.57	6.406
333.78	6.480
333.99	6.543
334.19	6.592
334.40	6.610
334.61	6.605
334.82	6.655
335.03	6.632
335.24	6.660
335.45	6.704
335.66	6.765
335.87	6.720
336.08	6.776
336.29	6.807
336.50	6.732
336.71	6.731
336.91	6.828
337.12	6.887
337.33	6.913
337.54	6.828
337.75	6.867
337.96	6.928
338.17	6.941
338.38	6.855
338.59	6.844
338.80	6.923
339.01	6.924
339.21	6.829
339.42	6.716
339.63	6.697
339.84	6.656
340.05	6.695
340.26	6.690
340.47	6.715
340.68	6.757
340.89	6.806
341.10	6.842
341.30	6.882
341.51	6.925
341.72	7.022
341.93	7.061
342.14	7.163
342.35	7.104
342.56	7.115
342.77	7.071
342.98	7.058
343.18	7.041
343.39	7.035
343.60	7.028
343.81	7.005
344.02	6.983
344.23	6.946
344.44	6.896
344.65	6.915
344.85	6.959
345.06	6.985
345.27	7.039
345.48	7.025
345.69	6.946
345.90	6.949
346.11	6.958
346.32	6.950
346.52	7.038
346.73	7.088
346.94	7.230
347.15	7.181
347.36	7.192
347.57	7.182
347.78	7.199
347.98	7.249
348.19	7.336
348.40	7.417
348.61	7.477
348.82	7.489
349.03	7.514
349.24	7.431
349.44	7.492
349.65	7.508
349.86	7.516
350.07	7.585
350.28	7.620
350.49	7.614
350.70	7.541
350.90	7.518
351.11	7.453
351.32	7.491
351.53	7.530
351.74	7.498
351.95	7.547
352.15	7.556
352.36	7.498
352.57	7.533
352.78	7.518
352.99	7.585
353.20	7.643
353.40	7.730
353.61	7.723
353.82	7.730
354.03	7.821
354.24	7.806
354.45	7.820
354.65	7.900
354.86	7.899
355.07	7.923
355.28	7.930
355.49	7.960
355.70	7.983
355.90	7.924
356.11	7.922
356.32	7.862
356.53	7.912
356.74	7.973
356.94	7.982
357.15	8.013
357.36	8.009
357.57	8.025
357.78	8.046
357.99	8.048
358.19	8.152
358.40	8.131
358.61	8.159
358.82	8.156
359.03	8.092
359.23	8.077
359.44	8.145
359.65	8.186
359.86	8.201
360.07	8.153
360.27	8.141
360.48	8.146
360.69	8.172
360.90	8.180
361.11	8.186
361.31	8.251
361.52	8.300
361.73	8.276
361.94	8.263
362.15	8.285
362.35	8.396
362.56	8.442
362.77	8.475
362.98	8.530
363.18	8.547
363.39	8.601
363.60	8.607
363.81	8.591
364.02	8.600
364.22	8.665
364.43	8.705
364.64	8.624
364.85	8.643
365.05	8.608
365.26	8.613
365.47	8.642
365.68	8.651
365.89	8.698
366.09	8.703
366.30	8.758
366.51	8.736
366.72	8.736
366.92	8.820
367.13	8.857
367.34	8.926
367.55	8.908
367.75	8.932
367.96	8.949
368.17	8.974
368.38	9.015
368.58	8.986
368.79	9.015
369.00	9.047
369.21	9.047
369.41	9.045
369.62	9.009
369.83	9.080
370.04	9.137
370.24	9.117
370.45	9.094
370.66	9.122
370.87	9.153
371.07	9.190
371.28	9.166
371.49	9.163
371.70	9.130
371.90	9.217
372.11	9.222
372.32	9.219
372.53	9.246
372.73	9.287
372.94	9.302
373.15	9.326
373.36	9.322
373.56	9.386
373.77	9.425
373.98	9.516
374.19	9.462
374.39	9.481
374.60	9.502
374.81	9.531
375.01	9.532
375.22	9.583
375.43	9.625
375.64	9.700
375.84	9.715
376.05	9.773
376.26	9.768
376.46	9.839
376.67	9.812
376.88	9.815
377.09	9.830
377.29	9.861
377.50	9.858
377.71	9.865
377.91	9.850
378.12	9.872
378.33	9.828
378.54	9.867
378.74	9.861
378.95	9.934
379.16	9.934
379.36	9.954
379.57	9.965
379.78	9.980
379.99	10.002
380.19	10.008
380.40	10.020
380.61	10.057
380.81	10.049
381.02	10.087
381.23	10.132
381.43	10.154
381.64	10.191
381.85	10.227
382.05	10.261
382.26	10.278
382.47	10.288
382.67	10.305
382.88	10.325
383.09	10.353
383.30	10.352
383.50	10.332
383.71	10.416
383.92	10.453
384.12	10.471
384.33	10.451
384.54	10.469
384.74	10.533
384.95	10.552
385.16	10.575
385.36	10.581
385.57	10.596
385.78	10.631
385.98	10.620
386.19	10.617
386.40	10.642
386.60	10.690
386.81	10.716
387.02	10.709
387.22	10.741
387.43	10.761
387.64	10.797
387.84	10.851
388.05	10.898
388.26	10.908
388.46	10.917
388.67	10.915
388.88	10.923
389.08	10.944
389.29	10.973
389.49	11.003
389.70	11.027
389.91	11.046
390.11	11.051
390.32	11.037
390.53	11.058
390.73	11.071
390.94	11.100
391.15	11.117
391.35	11.139
391.56	11.144
391.77	11.130
391.97	11.146
392.18	11.165
392.38	11.173
392.59	11.205
392.80	11.212
393.00	11.246
393.21	11.304
393.42	11.325
393.62	11.327
393.83	11.341
394.04	11.364
394.24	11.382
394.45	11.409
394.65	11.445
394.86	11.442
395.07	11.491
395.27	11.503
395.48	11.492
395.68	11.522
395.89	11.563
396.10	11.594
396.30	11.630
396.51	11.645
396.72	11.640
396.92	11.644
397.13	11.681
397.33	11.696
397.54	11.753
397.75	11.777
397.95	11.809
398.16	11.785
398.36	11.802
398.57	11.838
398.78	11.864
398.98	11.893
399.19	11.937
399.39	11.952
399.60	11.968
399.81	11.943
400.01	11.951
400.22	11.965
400.42	12.028
400.63	12.062
400.84	12.079
401.04	12.104
401.25	12.128
401.45	12.127
401.66	12.166
401.86	12.184
402.07	12.217
402.28	12.250
402.48	12.271
402.69	12.277
402.89	12.295
403.10	12.294
403.31	12.306
403.51	12.335
403.72	12.359
403.92	12.380
404.13	12.393
404.33	12.433
404.54	12.398
404.75	12.392
404.95	12.411
405.16	12.441
405.36	12.471
405.57	12.514
405.77	12.546
405.98	12.576
406.18	12.571
406.39	12.577
406.60	12.582
406.80	12.635
407.01	12.665
407.21	12.703
407.42	12.713
407.62	12.716
407.83	12.732
408.03	12.764
408.24	12.777
408.45	12.815
408.65	12.871
408.86	12.885
409.06	12.890
409.27	12.925
409.47	12.926
409.68	12.968
409.88	12.994
410.09	12.977
410.29	12.979
410.50	13.013
410.71	13.020
410.91	13.020
411.12	13.068
411.32	13.130
411.53	13.134
411.73	13.171
411.94	13.164
412.14	13.207
412.35	13.258
412.55	13.260
412.76	13.252
412.96	13.283
413.17	13.286
413.37	13.258
413.58	13.263
413.78	13.291
413.99	13.300
414.19	13.299
414.40	13.303
414.61	13.324
414.81	13.338
415.02	13.329
415.22	13.336
415.43	13.356
415.63	13.368
415.84	13.399
416.04	13.411
416.25	13.424
416.45	13.437
416.66	13.460
416.86	13.453
417.07	13.453
417.27	13.476
417.48	13.469
417.68	13.477
417.89	13.507
418.09	13.498
418.30	13.520
418.50	13.517
418.71	13.554
418.91	13.564
419.12	13.598
419.32	13.631
419.53	13.641
419.73	13.654
419.94	13.648
420.14	13.646
420.34	13.638
420.55	13.634
420.75	13.662
420.96	13.682
421.16	13.687
421.37	13.669
421.57	13.700
421.78	13.744
421.98	13.787
422.19	13.819
422.39	13.867
422.60	13.895
422.80	13.932
423.01	13.929
423.21	13.915
423.42	13.941
423.62	13.934
423.83	13.920
424.03	13.925
424.23	13.928
424.44	13.961
424.64	13.977
424.85	14.024
425.05	14.056
425.26	14.094
425.46	14.136
425.67	14.169
425.87	14.253
426.08	14.320
426.28	14.375
426.48	14.407
426.69	14.439
426.89	14.462
427.10	14.482
427.30	14.507
427.51	14.549
427.71	14.579
427.92	14.575
428.12	14.588
428.32	14.586
428.53	14.564
428.73	14.592
428.94	14.639
429.14	14.646
429.35	14.659
429.55	14.682
429.76	14.688
429.96	14.678
430.16	14.726
430.37	14.752
430.57	14.759
430.78	14.770
430.98	14.772
431.19	14.774
431.39	14.781
431.59	14.785
431.80	14.745
432.00	14.735
432.21	14.737
432.41	14.696
432.61	14.683
432.82	14.699
433.02	14.725
433.23	14.754
433.43	14.752
433.64	14.789
433.84	14.810
434.04	14.870
434.25	14.933
434.45	14.985
434.66	15.072
434.86	15.139
435.06	15.183
435.27	15.228
435.47	15.264
435.68	15.302
435.88	15.319
436.08	15.331
436.29	15.313
436.49	15.290
436.70	15.291
436.90	15.258
437.10	15.253
437.31	15.277
437.51	15.269
437.71	15.248
437.92	15.223
438.12	15.204
438.33	15.201
438.53	15.216
438.73	15.220
438.94	15.214
439.14	15.246
439.35	15.269
439.55	15.261
439.75	15.271
439.96	15.299
440.16	15.318
440.36	15.318
440.57	15.349
440.77	15.378
440.97	15.427
441.18	15.456
441.38	15.487
441.59	15.482
441.79	15.517
441.99	15.536
442.20	15.558
442.40	15.613
442.60	15.668
442.81	15.679
443.01	15.676
443.21	15.650
443.42	15.673
443.62	15.644
443.83	15.642
444.03	15.630
444.23	15.628
444.44	15.618
444.64	15.583
444.84	15.576
445.05	15.568
445.25	15.561
445.45	15.549
445.66	15.540
445.86	15.551
446.06	15.562
446.27	15.586
446.47	15.614
446.67	15.643
446.88	15.694
447.08	15.733
447.28	15.773
447.49	15.818
447.69	15.893
447.89	15.943
448.10	15.987
448.30	16.034
448.50	16.057
448.71	16.101
448.91	16.111
449.11	16.135
449.32	16.149
449.52	16.193
449.72	16.211
449.93	16.221
450.13	16.248
450.33	16.292
450.53	16.343
450.74	16.364
450.94	16.346
451.14	16.383
451.35	16.365
451.55	16.363
451.75	16.342
451.96	16.326
452.16	16.304
452.36	16.312
452.57	16.287
452.77	16.284
452.97	16.295
453.17	16.305
453.38	16.315
453.58	16.345
453.78	16.383
453.99	16.396
454.19	16.438
454.39	16.472
454.59	16.490
454.80	16.537
455.00	16.545
455.20	16.582
455.41	16.620
455.61	16.649
455.81	16.670
456.01	16.683
456.22	16.713
456.42	16.733
456.62	16.757
456.83	16.773
457.03	16.779
457.23	16.788
457.43	16.749
457.64	16.726
457.84	16.698
458.04	16.687
458.25	16.658
458.45	16.641
458.65	16.605
458.85	16.582
459.06	16.530
459.26	16.525
459.46	16.528
459.66	16.555
459.87	16.610
460.07	16.647
460.27	16.674
460.47	16.734
460.68	16.783
460.88	16.861
461.08	16.913
461.28	17.014
461.49	17.053
461.69	17.125
461.89	17.160
462.09	17.174
462.30	17.186
462.50	17.230
462.70	17.218
462.90	17.238
463.11	17.228
463.31	17.254
463.51	17.244
463.71	17.265
463.92	17.235
464.12	17.244
464.32	17.260
464.52	17.269
464.72	17.263
464.93	17.287
465.13	17.285
465.33	17.285
465.53	17.276
465.74	17.286
465.94	17.267
466.14	17.278
466.34	17.267
466.54	17.253
466.75	17.282
466.95	17.290
467.15	17.301
467.35	17.307
467.56	17.323
467.76	17.346
467.96	17.367
468.16	17.402
468.36	17.428
468.57	17.461
468.77	17.497
468.97	17.500
469.17	17.512
469.37	17.504
469.58	17.529
469.78	17.542
469.98	17.562
470.18	17.579
470.38	17.606
470.59	17.628
470.79	17.648
470.99	17.672
471.19	17.695
471.39	17.731
471.60	17.757
471.80	17.739
472.00	17.718
472.20	17.711
472.40	17.697
472.61	17.691
472.81	17.697
473.01	17.709
473.21	17.712
473.41	17.726
473.61	17.732
473.82	17.742
474.02	17.790
474.22	17.867
474.42	17.885
474.62	17.923
474.82	17.941
475.03	17.972
475.23	17.985
475.43	17.995
475.63	17.982
475.83	17.974
476.03	17.981
476.24	17.974
476.44	17.940
476.64	17.958
476.84	17.961
477.04	17.982
477.24	17.971
477.45	17.978
477.65	17.972
477.85	17.981
478.05	17.980
478.25	17.995
478.45	18.031
478.65	18.065
478.86	18.070
479.06	18.082
479.26	18.093
479.46	18.120
479.66	18.121
479.86	18.152
480.06	18.154
480.27	18.172
