OOIBase32 Version 2.0.6.5 Data File
++++++++++++++++++++++++++++++++++++
Date: 03-23-2011, 12:15:59
User: Valued Ocean Optics Customer
Spectrometer Serial Number: USB4C01507
Spectrometer Channel: Master
Integration Time (msec): 62
Spectra Averaged: 20
Boxcar Smoothing: 5
Correct for Electrical Dark: Enabled
Time Normalized: Disabled
Dual-beam Reference: Disabled
Reference Channel: Master
Temperature: Not acquired
Spectrometer Type: S4000
ADC Type: USB4000
Number of Pixels in File: 3648
Graph Title: 
>>>>>Begin Spectral Data<<<<<
178.53	38.360
178.74	-26.585
178.96	-146.554
179.18	374.439
179.39	-15.953
179.61	48.695
179.82	-61.770
180.04	-66.978
180.25	176.194
180.47	-27.268
180.69	430.161
180.90	99.032
181.12	-141.507
181.33	11511.444
181.55	405.984
181.76	31.077
181.98	-407.300
182.20	-18.784
182.41	68.108
182.63	61.002
182.84	30.795
183.06	31.812
183.27	44.303
183.49	38.986
183.71	32.334
183.92	16.095
184.14	24.783
184.35	31.495
184.57	26.844
184.78	24.446
185.00	26.580
185.21	29.595
185.43	25.048
185.65	17.881
185.86	20.208
186.08	22.804
186.29	30.558
186.51	23.084
186.72	29.488
186.94	38.140
187.15	39.507
187.37	46.726
187.58	45.288
187.80	48.261
188.02	51.309
188.23	44.881
188.45	47.523
188.66	48.000
188.88	49.434
189.09	45.475
189.31	46.684
189.52	48.223
189.74	42.816
189.95	49.426
190.17	52.540
190.38	54.591
190.60	52.724
190.82	50.233
191.03	58.748
191.25	51.453
191.46	39.799
191.68	31.332
191.89	29.103
192.11	34.446
192.32	27.110
192.54	26.548
192.75	21.229
192.97	26.329
193.18	25.153
193.40	20.038
193.61	27.152
193.83	31.604
194.04	34.242
194.26	32.636
194.48	27.959
194.69	23.116
194.91	23.149
195.12	25.901
195.34	26.085
195.55	31.762
195.77	38.772
195.98	36.355
196.20	33.853
196.41	30.602
196.63	40.578
196.84	42.268
197.06	51.037
197.27	49.827
197.49	50.102
197.70	53.829
197.92	49.753
198.13	46.059
198.35	43.951
198.56	45.018
198.78	47.935
198.99	37.693
199.21	36.293
199.42	26.674
199.64	22.134
199.85	20.036
200.07	6.328
200.28	2.533
200.50	-0.552
200.71	2.156
200.93	-0.511
201.14	-7.063
201.36	-1.569
201.57	-2.385
201.79	0.885
202.00	6.974
202.22	3.058
202.43	14.883
202.65	19.698
202.86	13.289
203.08	6.222
203.29	10.637
203.51	5.199
203.72	4.458
203.94	10.561
204.15	6.533
204.37	2.743
204.58	8.664
204.80	5.910
205.01	10.407
205.22	14.118
205.44	24.663
205.65	24.214
205.87	31.169
206.08	30.532
206.30	29.885
206.51	29.766
206.73	32.113
206.94	33.949
207.16	34.450
207.37	31.114
207.59	31.194
207.80	20.281
208.02	19.638
208.23	19.011
208.45	20.591
208.66	15.819
208.88	19.407
209.09	16.555
209.30	14.776
209.52	12.719
209.73	8.787
209.95	13.181
210.16	18.827
210.38	18.941
210.59	21.536
210.81	19.912
211.02	20.882
211.24	18.885
211.45	18.300
211.66	16.131
211.88	14.132
212.09	14.347
212.31	15.359
212.52	15.315
212.74	12.340
212.95	8.757
213.17	7.585
213.38	7.216
213.60	13.371
213.81	16.309
214.02	19.205
214.24	18.213
214.45	18.746
214.67	13.162
214.88	13.867
215.10	14.348
215.31	18.348
215.53	23.481
215.74	21.965
215.95	19.341
216.17	14.338
216.38	13.770
216.60	17.236
216.81	19.444
217.03	17.590
217.24	18.141
217.45	20.559
217.67	19.684
217.88	15.336
218.10	16.768
218.31	15.607
218.53	17.742
218.74	15.354
218.95	13.178
219.17	11.078
219.38	14.032
219.60	12.464
219.81	13.032
220.03	8.725
220.24	9.714
220.45	8.559
220.67	6.482
220.88	8.665
221.10	9.752
221.31	11.741
221.53	12.565
221.74	12.110
221.95	10.440
222.17	8.553
222.38	9.514
222.60	8.057
222.81	9.170
223.02	9.709
223.24	9.187
223.45	9.410
223.67	8.040
223.88	7.862
224.09	7.453
224.31	9.668
224.52	11.322
224.74	9.995
224.95	10.288
225.16	9.618
225.38	9.398
225.59	9.003
225.81	8.715
226.02	8.124
226.23	8.190
226.45	7.178
226.66	6.162
226.88	4.341
227.09	4.573
227.30	4.181
227.52	4.178
227.73	4.055
227.95	3.618
228.16	3.368
228.37	3.445
228.59	3.308
228.80	3.257
229.02	3.256
229.23	3.176
229.44	3.192
229.66	3.151
229.87	3.044
230.08	2.877
230.30	2.778
230.51	2.621
230.73	2.514
230.94	2.497
231.15	2.970
231.37	2.726
231.58	3.167
231.80	3.257
232.01	3.064
232.22	3.195
232.44	3.455
232.65	3.279
232.86	3.633
233.08	3.262
233.29	3.050
233.51	2.842
233.72	3.676
233.93	3.558
234.15	3.352
234.36	3.567
234.57	3.264
234.79	3.739
235.00	4.261
235.21	4.277
235.43	4.481
235.64	4.746
235.86	4.803
236.07	4.320
236.28	4.472
236.50	4.491
236.71	4.830
236.92	5.130
237.14	3.888
237.35	4.054
237.56	4.005
237.78	3.952
237.99	3.723
238.20	3.067
238.42	3.645
238.63	3.792
238.84	3.083
239.06	2.969
239.27	2.465
239.48	2.795
239.70	2.165
239.91	2.226
240.13	2.301
240.34	2.128
240.55	2.303
240.77	2.114
240.98	1.966
241.19	2.514
241.41	2.159
241.62	2.213
241.83	2.480
242.05	2.670
242.26	2.449
242.47	2.469
242.69	2.489
242.90	2.385
243.11	2.197
243.33	2.050
243.54	1.906
243.75	2.253
243.97	2.461
244.18	2.258
244.39	2.059
244.61	2.415
244.82	2.248
245.03	2.109
245.24	2.273
245.46	2.293
245.67	2.470
245.88	2.723
246.10	2.489
246.31	2.358
246.52	2.386
246.74	2.410
246.95	2.272
247.16	2.345
247.38	2.286
247.59	2.312
247.80	2.334
248.02	2.368
248.23	2.282
248.44	2.235
248.66	2.178
248.87	2.237
249.08	2.226
249.29	2.329
249.51	2.413
249.72	2.581
249.93	2.655
250.15	2.787
250.36	2.664
250.57	2.777
250.79	3.038
251.00	3.265
251.21	3.191
251.42	2.985
251.64	2.914
251.85	2.767
252.06	2.819
252.28	2.707
252.49	2.646
252.70	2.873
252.91	2.878
253.13	2.918
253.34	2.800
253.55	2.739
253.77	2.993
253.98	3.260
254.19	3.333
254.40	3.142
254.62	3.133
254.83	3.212
255.04	3.167
255.26	3.190
255.47	3.222
255.68	3.375
255.89	3.329
256.11	2.915
256.32	2.581
256.53	2.623
256.75	2.766
256.96	2.888
257.17	2.906
257.38	2.792
257.60	2.659
257.81	2.728
258.02	2.823
258.23	2.908
258.45	2.975
258.66	2.843
258.87	2.675
259.09	2.533
259.30	2.361
259.51	2.373
259.72	2.264
259.94	2.241
260.15	2.197
260.36	2.195
260.57	2.103
260.79	2.041
261.00	2.079
261.21	2.086
261.42	2.185
261.64	2.287
261.85	2.392
262.06	2.573
262.27	2.609
262.49	2.648
262.70	2.734
262.91	3.045
263.12	3.237
263.34	3.328
263.55	3.397
263.76	3.178
263.97	3.172
264.19	3.205
264.40	3.310
264.61	3.436
264.82	3.399
265.04	3.283
265.25	2.997
265.46	3.016
265.67	2.951
265.88	2.587
266.10	2.480
266.31	2.559
266.52	2.410
266.73	2.334
266.95	2.383
267.16	2.437
267.37	2.330
267.58	2.218
267.80	2.153
268.01	1.917
268.22	2.135
268.43	2.147
268.64	1.939
268.86	1.746
269.07	1.743
269.28	1.709
269.49	1.626
269.71	1.713
269.92	2.000
270.13	2.004
270.34	2.266
270.55	2.274
270.77	2.441
270.98	2.511
271.19	2.716
271.40	2.730
271.61	2.736
271.83	2.641
272.04	2.568
272.25	2.498
272.46	2.436
272.68	2.524
272.89	2.427
273.10	2.335
273.31	2.474
273.52	2.466
273.74	2.374
273.95	2.391
274.16	2.460
274.37	2.490
274.58	2.406
274.80	2.406
275.01	2.191
275.22	2.319
275.43	2.416
275.64	2.253
275.86	2.068
276.07	2.113
276.28	2.097
276.49	2.127
276.70	2.202
276.91	2.142
277.13	2.089
277.34	2.135
277.55	2.175
277.76	2.167
277.97	2.151
278.19	2.341
278.40	2.420
278.61	2.320
278.82	2.309
279.03	2.197
279.24	2.418
279.46	2.461
279.67	2.504
279.88	2.219
280.09	2.305
280.30	2.246
280.52	2.227
280.73	2.190
280.94	2.157
281.15	2.105
281.36	2.045
281.57	1.742
281.79	1.793
282.00	1.764
282.21	2.003
282.42	1.853
282.63	1.926
282.84	1.869
283.06	1.963
283.27	1.972
283.48	2.045
283.69	2.042
283.90	2.186
284.11	2.094
284.32	2.036
284.54	1.953
284.75	2.030
284.96	2.001
285.17	2.013
285.38	1.921
285.59	1.959
285.81	1.928
286.02	2.100
286.23	2.176
286.44	2.238
286.65	2.168
286.86	2.118
287.07	2.119
287.29	2.150
287.50	2.137
287.71	2.171
287.92	2.138
288.13	2.137
288.34	1.906
288.55	1.866
288.77	1.917
288.98	2.023
289.19	2.111
289.40	2.119
289.61	2.158
289.82	2.125
290.03	2.125
290.24	2.236
290.46	2.325
290.67	2.482
290.88	2.469
291.09	2.505
291.30	2.578
291.51	2.531
291.72	2.508
291.93	2.427
292.15	2.569
292.36	2.425
292.57	2.397
292.78	2.396
292.99	2.278
293.20	2.215
293.41	2.194
293.62	2.241
293.84	2.365
294.05	2.382
294.26	2.415
294.47	2.363
294.68	2.353
294.89	2.413
295.10	2.432
295.31	2.497
295.52	2.621
295.73	2.639
295.95	2.583
296.16	2.541
296.37	2.533
296.58	2.582
296.79	2.560
297.00	2.662
297.21	2.552
297.42	2.504
297.63	2.509
297.84	2.556
298.06	2.554
298.27	2.619
298.48	2.675
298.69	2.753
298.90	2.761
299.11	2.906
299.32	2.931
299.53	3.057
299.74	3.126
299.95	3.202
300.16	3.105
300.38	3.166
300.59	3.107
300.80	3.049
301.01	2.935
301.22	2.980
301.43	2.792
301.64	2.728
301.85	2.737
302.06	2.682
302.27	2.610
302.48	2.557
302.69	2.472
302.91	2.561
303.12	2.522
303.33	2.639
303.54	2.574
303.75	2.642
303.96	2.765
304.17	2.721
304.38	2.696
304.59	2.796
304.80	2.817
305.01	2.816
305.22	2.892
305.43	3.043
305.64	2.946
305.85	3.122
306.06	3.199
306.28	3.251
306.49	3.272
306.70	3.327
306.91	3.295
307.12	3.492
307.33	3.542
307.54	3.357
307.75	3.277
307.96	3.316
308.17	3.227
308.38	3.263
308.59	3.283
308.80	3.301
309.01	3.442
309.22	3.424
309.43	3.208
309.64	3.180
309.85	3.301
310.06	3.355
310.27	3.352
310.48	3.347
310.70	3.289
310.91	3.276
311.12	3.339
311.33	3.297
311.54	3.323
311.75	3.462
311.96	3.433
312.17	3.340
312.38	3.278
312.59	3.419
312.80	3.369
313.01	3.398
313.22	3.399
313.43	3.367
313.64	3.311
313.85	3.281
314.06	3.278
314.27	3.480
314.48	3.560
314.69	3.771
314.90	3.665
315.11	3.800
315.32	3.794
315.53	3.796
315.74	3.818
315.95	3.894
316.16	3.994
316.37	3.970
316.58	3.883
316.79	3.934
317.00	3.875
317.21	3.939
317.42	3.952
317.63	3.917
317.84	3.940
318.05	4.019
318.26	3.956
318.47	3.876
318.68	3.956
318.89	3.960
319.10	3.948
319.31	3.952
319.52	3.927
319.73	3.849
319.94	3.967
320.15	3.997
320.36	3.944
320.57	4.060
320.78	4.193
320.99	4.167
321.20	4.250
321.41	4.297
321.62	4.341
321.83	4.335
322.04	4.414
322.25	4.412
322.46	4.481
322.67	4.565
322.88	4.581
323.09	4.605
323.30	4.726
323.51	4.714
323.72	4.720
323.93	4.630
324.14	4.660
324.35	4.645
324.56	4.676
324.77	4.557
324.98	4.514
325.19	4.527
325.40	4.479
325.61	4.454
325.82	4.469
326.03	4.471
326.24	4.523
326.45	4.591
326.65	4.674
326.86	4.634
327.07	4.698
327.28	4.750
327.49	4.712
327.70	4.774
327.91	4.644
328.12	4.611
328.33	4.646
328.54	4.633
328.75	4.633
328.96	4.717
329.17	4.738
329.38	4.778
329.59	4.804
329.80	4.826
330.01	4.833
330.22	4.915
330.43	4.994
330.64	5.052
330.85	5.045
331.05	5.021
331.26	4.955
331.47	4.985
331.68	4.973
331.89	4.897
332.10	4.924
332.31	4.963
332.52	4.990
332.73	4.970
332.94	4.936
333.15	4.978
333.36	4.935
333.57	4.964
333.78	4.989
333.99	5.000
334.19	5.082
334.40	5.132
334.61	5.111
334.82	5.140
335.03	5.176
335.24	5.152
335.45	5.197
335.66	5.332
335.87	5.319
336.08	5.280
336.29	5.304
336.50	5.298
336.71	5.281
336.91	5.305
337.12	5.316
337.33	5.373
337.54	5.369
337.75	5.423
337.96	5.442
338.17	5.435
338.38	5.506
338.59	5.532
338.80	5.594
339.01	5.550
339.21	5.554
339.42	5.567
339.63	5.492
339.84	5.501
340.05	5.451
340.26	5.401
340.47	5.438
340.68	5.453
340.89	5.488
341.10	5.472
341.30	5.534
341.51	5.544
341.72	5.564
341.93	5.649
342.14	5.723
342.35	5.761
342.56	5.790
342.77	5.775
342.98	5.765
343.18	5.785
343.39	5.768
343.60	5.776
343.81	5.677
344.02	5.711
344.23	5.664
344.44	5.594
344.65	5.613
344.85	5.686
345.06	5.738
345.27	5.768
345.48	5.714
345.69	5.714
345.90	5.705
346.11	5.837
346.32	5.801
346.52	5.868
346.73	5.878
346.94	5.928
347.15	5.802
347.36	5.816
347.57	5.789
347.78	5.802
347.98	5.835
348.19	5.877
348.40	5.903
348.61	5.946
348.82	5.941
349.03	6.030
349.24	5.984
349.44	6.135
349.65	6.139
349.86	6.110
350.07	6.170
350.28	6.183
350.49	6.216
350.70	6.163
350.90	6.104
351.11	6.031
351.32	6.042
351.53	6.157
351.74	6.095
351.95	6.121
352.15	6.162
352.36	6.118
352.57	6.143
352.78	6.094
352.99	6.155
353.20	6.269
353.40	6.384
353.61	6.401
353.82	6.319
354.03	6.382
354.24	6.348
354.45	6.420
354.65	6.549
354.86	6.551
355.07	6.667
355.28	6.681
355.49	6.728
355.70	6.722
355.90	6.695
356.11	6.731
356.32	6.694
356.53	6.774
356.74	6.774
356.94	6.761
357.15	6.781
357.36	6.743
357.57	6.765
357.78	6.728
357.99	6.739
358.19	6.792
358.40	6.796
358.61	6.809
358.82	6.780
359.03	6.761
359.23	6.702
359.44	6.742
359.65	6.756
359.86	6.752
360.07	6.722
360.27	6.780
360.48	6.764
360.69	6.762
360.90	6.778
361.11	6.801
361.31	6.875
361.52	6.955
361.73	6.971
361.94	7.017
362.15	7.051
362.35	7.114
362.56	7.102
362.77	7.138
362.98	7.192
363.18	7.219
363.39	7.233
363.60	7.273
363.81	7.250
364.02	7.225
364.22	7.224
364.43	7.245
364.64	7.231
364.85	7.258
365.05	7.258
365.26	7.281
365.47	7.269
365.68	7.299
365.89	7.280
366.09	7.257
366.30	7.323
366.51	7.324
366.72	7.348
366.92	7.405
367.13	7.395
367.34	7.469
367.55	7.478
367.75	7.535
367.96	7.574
368.17	7.642
368.38	7.725
368.58	7.719
368.79	7.751
369.00	7.715
369.21	7.763
369.41	7.804
369.62	7.798
369.83	7.799
370.04	7.854
370.24	7.836
370.45	7.811
370.66	7.829
370.87	7.846
371.07	7.869
371.28	7.891
371.49	7.889
371.70	7.912
371.90	7.939
372.11	7.983
372.32	7.994
372.53	8.003
372.73	8.016
372.94	8.074
373.15	8.103
373.36	8.141
373.56	8.189
373.77	8.224
373.98	8.269
374.19	8.233
374.39	8.208
374.60	8.209
374.81	8.253
375.01	8.261
375.22	8.243
375.43	8.291
375.64	8.331
375.84	8.338
376.05	8.388
376.26	8.425
376.46	8.486
376.67	8.538
376.88	8.554
377.09	8.571
377.29	8.624
377.50	8.641
377.71	8.654
377.91	8.634
378.12	8.686
378.33	8.645
378.54	8.649
378.74	8.684
378.95	8.692
379.16	8.686
379.36	8.680
379.57	8.720
379.78	8.736
379.99	8.742
380.19	8.777
380.40	8.785
380.61	8.804
380.81	8.825
381.02	8.866
381.23	8.909
381.43	8.947
381.64	8.986
381.85	8.981
382.05	8.998
382.26	9.038
382.47	9.032
382.67	9.097
382.88	9.103
383.09	9.108
383.30	9.060
383.50	9.054
383.71	9.100
383.92	9.122
384.12	9.178
384.33	9.194
384.54	9.192
384.74	9.241
384.95	9.229
385.16	9.300
385.36	9.314
385.57	9.388
385.78	9.408
385.98	9.453
386.19	9.537
386.40	9.551
386.60	9.587
386.81	9.627
387.02	9.662
387.22	9.702
387.43	9.697
387.64	9.749
387.84	9.761
388.05	9.820
388.26	9.836
388.46	9.837
388.67	9.845
388.88	9.884
389.08	9.918
389.29	9.939
389.49	10.004
389.70	10.024
389.91	10.022
390.11	10.027
390.32	10.019
390.53	10.033
390.73	10.046
390.94	10.077
391.15	10.059
391.35	10.084
391.56	10.123
391.77	10.107
391.97	10.142
392.18	10.200
392.38	10.230
392.59	10.272
392.80	10.290
393.00	10.292
393.21	10.315
393.42	10.372
393.62	10.392
393.83	10.386
394.04	10.391
394.24	10.407
394.45	10.409
394.65	10.458
394.86	10.486
395.07	10.500
395.27	10.570
395.48	10.559
395.68	10.606
395.89	10.632
396.10	10.669
396.30	10.722
396.51	10.754
396.72	10.778
396.92	10.784
397.13	10.805
397.33	10.829
397.54	10.828
397.75	10.903
397.95	10.924
398.16	10.934
398.36	10.954
398.57	10.972
398.78	10.985
398.98	11.001
399.19	11.041
399.39	11.072
399.60	11.088
399.81	11.095
400.01	11.093
400.22	11.093
400.42	11.145
400.63	11.181
400.84	11.215
401.04	11.247
401.25	11.273
401.45	11.304
401.66	11.344
401.86	11.391
402.07	11.429
402.28	11.461
402.48	11.502
402.69	11.510
402.89	11.526
403.10	11.527
403.31	11.573
403.51	11.577
403.72	11.576
403.92	11.621
404.13	11.659
404.33	11.710
404.54	11.713
404.75	11.746
404.95	11.766
405.16	11.784
405.36	11.812
405.57	11.829
405.77	11.880
405.98	11.906
406.18	11.913
406.39	11.907
406.60	11.899
406.80	11.960
407.01	11.973
407.21	12.029
407.42	12.058
407.62	12.092
407.83	12.101
408.03	12.165
408.24	12.208
408.45	12.232
408.65	12.269
408.86	12.323
409.06	12.300
409.27	12.342
409.47	12.311
409.68	12.363
409.88	12.375
410.09	12.388
410.29	12.384
410.50	12.421
410.71	12.432
410.91	12.458
411.12	12.459
411.32	12.529
411.53	12.552
411.73	12.625
411.94	12.640
412.14	12.672
412.35	12.719
412.55	12.719
412.76	12.745
412.96	12.788
413.17	12.808
413.37	12.859
413.58	12.899
413.78	12.909
413.99	12.905
414.19	12.933
414.40	12.966
414.61	12.970
414.81	13.001
415.02	12.983
415.22	12.983
415.43	12.997
415.63	12.995
415.84	12.988
416.04	12.983
416.25	13.026
416.45	13.021
416.66	12.996
416.86	13.020
417.07	13.015
417.27	13.030
417.48	13.027
417.68	13.060
417.89	13.064
418.09	13.074
418.30	13.105
418.50	13.110
418.71	13.135
418.91	13.178
419.12	13.194
419.32	13.233
419.53	13.261
419.73	13.284
419.94	13.246
420.14	13.243
420.34	13.230
420.55	13.228
420.75	13.238
420.96	13.243
421.16	13.263
421.37	13.300
421.57	13.329
421.78	13.364
421.98	13.405
422.19	13.477
422.39	13.528
422.60	13.583
422.80	13.631
423.01	13.628
423.21	13.644
423.42	13.635
423.62	13.611
423.83	13.618
424.03	13.626
424.23	13.635
424.44	13.676
424.64	13.720
424.85	13.783
425.05	13.839
425.26	13.909
425.46	13.969
425.67	14.056
425.87	14.151
426.08	14.213
426.28	14.302
426.48	14.374
426.69	14.404
426.89	14.453
427.10	14.471
427.30	14.520
427.51	14.580
427.71	14.637
427.92	14.628
428.12	14.654
428.32	14.658
428.53	14.634
428.73	14.645
428.94	14.659
429.14	14.648
429.35	14.661
429.55	14.650
429.76	14.662
429.96	14.661
430.16	14.688
430.37	14.721
430.57	14.763
430.78	14.768
430.98	14.782
431.19	14.799
431.39	14.825
431.59	14.818
431.80	14.798
432.00	14.778
432.21	14.783
432.41	14.771
432.61	14.737
432.82	14.755
433.02	14.792
433.23	14.832
433.43	14.875
433.64	14.913
433.84	14.950
434.04	15.028
434.25	15.095
434.45	15.157
434.66	15.245
434.86	15.334
435.06	15.390
435.27	15.447
435.47	15.468
435.68	15.468
435.88	15.490
436.08	15.482
436.29	15.465
436.49	15.460
436.70	15.467
436.90	15.455
437.10	15.453
437.31	15.440
437.51	15.434
437.71	15.458
437.92	15.478
438.12	15.471
438.33	15.478
438.53	15.479
438.73	15.466
438.94	15.464
439.14	15.502
439.35	15.533
439.55	15.555
439.75	15.561
439.96	15.589
440.16	15.602
440.36	15.621
440.57	15.669
440.77	15.723
440.97	15.786
441.18	15.852
441.38	15.897
441.59	15.935
441.79	15.997
441.99	16.053
442.20	16.087
442.40	16.152
442.60	16.204
442.81	16.257
443.01	16.273
443.21	16.274
443.42	16.253
443.62	16.225
443.83	16.202
444.03	16.173
444.23	16.155
444.44	16.118
444.64	16.097
444.84	16.066
445.05	16.026
445.25	15.990
445.45	15.965
445.66	15.953
445.86	15.969
446.06	15.985
446.27	16.031
446.47	16.076
446.67	16.111
446.88	16.182
447.08	16.251
447.28	16.321
447.49	16.424
447.69	16.541
447.89	16.648
448.10	16.724
448.30	16.819
448.50	16.868
448.71	16.923
448.91	16.989
449.11	16.984
449.32	17.005
449.52	17.050
449.72	17.069
449.93	17.087
450.13	17.111
450.33	17.156
450.53	17.175
450.74	17.183
450.94	17.171
451.14	17.172
451.35	17.181
451.55	17.194
451.75	17.196
451.96	17.204
452.16	17.190
452.36	17.192
452.57	17.185
452.77	17.206
452.97	17.239
453.17	17.273
453.38	17.308
453.58	17.342
453.78	17.390
453.99	17.404
454.19	17.410
454.39	17.442
454.59	17.461
454.80	17.507
455.00	17.519
455.20	17.568
455.41	17.607
455.61	17.663
455.81	17.696
456.01	17.730
456.22	17.802
456.42	17.834
456.62	17.868
456.83	17.890
457.03	17.884
457.23	17.903
457.43	17.853
457.64	17.861
457.84	17.821
458.04	17.806
458.25	17.770
458.45	17.710
458.65	17.670
458.85	17.619
459.06	17.553
459.26	17.531
459.46	17.519
459.66	17.563
459.87	17.610
460.07	17.661
460.27	17.723
460.47	17.807
460.68	17.898
460.88	18.008
461.08	18.119
461.28	18.275
461.49	18.379
461.69	18.483
461.89	18.545
462.09	18.586
462.30	18.631
462.50	18.678
462.70	18.679
462.90	18.704
463.11	18.715
463.31	18.731
463.51	18.729
463.71	18.741
463.92	18.752
464.12	18.762
464.32	18.773
464.52	18.768
464.72	18.765
464.93	18.782
465.13	18.784
465.33	18.794
465.53	18.791
465.74	18.778
465.94	18.789
466.14	18.781
466.34	18.783
466.54	18.792
466.75	18.804
466.95	18.827
467.15	18.858
467.35	18.876
467.56	18.901
467.76	18.960
467.96	19.009
468.16	19.065
468.36	19.124
468.57	19.180
468.77	19.218
468.97	19.259
469.17	19.273
469.37	19.284
469.58	19.306
469.78	19.303
469.98	19.319
470.18	19.353
470.38	19.367
470.59	19.391
470.79	19.414
470.99	19.452
471.19	19.492
471.39	19.509
471.60	19.531
471.80	19.526
472.00	19.515
472.20	19.507
472.40	19.488
472.61	19.502
472.81	19.518
473.01	19.540
473.21	19.568
473.41	19.592
473.61	19.669
473.82	19.701
474.02	19.779
474.22	19.869
474.42	19.899
474.62	19.976
474.82	20.013
475.03	20.049
475.23	20.051
475.43	20.042
475.63	20.036
475.83	19.986
476.03	19.995
476.24	19.983
476.44	19.957
476.64	19.985
476.84	19.958
477.04	19.976
477.24	19.975
477.45	20.018
477.65	20.033
477.85	20.057
478.05	20.063
478.25	20.085
478.45	20.113
478.65	20.156
478.86	20.176
479.06	20.211
479.26	20.235
479.46	20.267
479.66	20.265
479.86	20.295
480.06	20.294
480.27	20.316
480.47	20.299
480.67	20.286
480.87	20.278
