Jaz Data File
++++++++++++++++++++++++++++++++++++
Date: Mon Aug 29 16:23:13 2011
User: jaz
Dark Spectrum Present: Yes
Reference Spectrum Present: Yes
Processed Spectrum Present: Yes
Spectrometers: JAZA1479
Integration Time (usec): 24000 (JAZA1479)
Spectra Averaged: 1 (JAZA1479)
Boxcar Smoothing: 0 (JAZA1479)
Correct for Electrical Dark: No (JAZA1479)
Strobe/Lamp Enabled: Yes (JAZA1479)
Correct for Detector Non-linearity: No (JAZA1479)
Correct for Stray Light: No (JAZA1479)
Number of Pixels in Processed Spectrum: 2048
>>>>>Begin Processed Spectral Data<<<<<
W	D	R	S	P
190.853500	0.000000	0.000000	0.000000	0.000000
191.231918	0.000000	0.000000	0.000000	0.000000
191.610306	1078.986938	1156.224609	1064.943726	-18.181818
191.988663	1181.970459	1184.311035	1062.603149	-5099.911133
192.366974	1149.203003	1165.586792	1074.305908	-457.141479
192.745285	1151.543579	1179.630005	1116.435547	-125.000000
193.123550	1226.440674	1149.203003	1151.543579	96.969643
193.501785	1167.927246	1121.116577	1109.413940	124.999931
193.880005	1188.992065	1165.586792	1086.008545	440.001343
194.258179	1163.246216	1163.246216	1160.905640	0.000000
194.636322	1219.419067	1233.462280	1174.948853	-316.666962
195.014435	1196.013672	1212.397461	1151.543579	-271.427399
195.392532	1200.694824	1221.759644	1174.948853	-122.222610
195.770584	1163.246216	1259.208130	1149.203003	-14.634152
196.148621	1210.056885	1212.397461	1149.203003	-2599.953125
196.526627	1170.267822	1235.802856	1128.138184	-64.285675
196.904572	1212.397461	1261.548706	1207.716431	-9.523726
197.282516	1196.013672	1226.440674	1128.138184	-223.076492
197.660416	1207.716431	1214.738037	1095.370728	-1600.000000
198.038300	1212.397461	1177.289429	1158.565186	153.333221
198.416153	1228.781250	1210.056885	1186.651611	224.999023
198.793976	1163.246216	1210.056885	1177.289429	30.000027
199.171768	1163.246216	1188.992065	1139.840820	-90.909393
199.549515	1167.927246	1139.840820	1184.311035	-58.333477
199.927246	1170.267822	1231.121704	1139.840820	-50.000099
200.304932	1184.311035	1217.078491	1212.397461	85.714394
200.682617	1172.608398	1291.975708	1179.630005	5.882353
201.060242	1151.543579	1275.591919	1104.732788	-37.735928
201.437851	1163.246216	1240.483887	1149.203003	-18.181818
201.815445	1179.630005	1296.656738	1135.159790	-38.000050
202.192993	1254.527100	1231.121704	1198.354248	239.999588
202.570496	1217.078491	1273.251343	1191.332642	-45.833260
202.947983	1203.035278	1317.721558	1156.224609	-40.816277
203.325439	1245.164917	1345.807983	1163.246216	-81.395279
203.702866	1156.224609	1284.954102	1181.970459	19.999962
204.080276	1100.051758	1249.846069	1109.413940	6.250025
204.457642	1132.819214	1313.040527	1172.608398	22.077957
204.834991	1177.289429	1291.975708	1107.073364	-61.224468
205.212280	1177.289429	1256.867676	1111.754395	-82.352951
205.589539	1212.397461	1291.975708	1146.862427	-82.352951
205.966797	1196.013672	1301.337769	1137.500366	-55.555477
206.344009	1163.246216	1287.294556	1116.435547	-37.735828
206.721207	1212.397461	1268.570313	1198.354248	-25.000000
207.098373	1198.354248	1380.916016	1153.884033	-24.358997
207.475479	1156.224609	1247.505493	1221.759644	71.794914
207.852570	1144.521973	1294.316162	1153.884033	6.249949
208.229645	1191.332642	1249.846069	1142.181396	-83.999939
208.606674	1149.203003	1324.743164	1135.159790	-8.000000
208.983688	1210.056885	1291.975708	1139.840820	-85.714203
209.360657	1107.073364	1284.954102	1177.289429	39.473675
209.737610	1156.224609	1266.229736	1111.754395	-40.425583
210.114502	1231.121704	1327.083740	1186.651611	-46.341339
210.491394	1125.797607	1345.807983	1100.051758	-11.702107
210.868240	1144.521973	1289.635132	1107.073364	-25.806486
211.245071	1137.500366	1306.018921	1158.565186	12.500000
211.621872	1191.332642	1308.359375	1153.884033	-32.000046
211.998627	1207.716431	1291.975708	1170.267822	-44.444492
212.375351	1228.781250	1397.299805	1181.970459	-27.777826
212.752045	1217.078491	1282.613525	1191.332642	-39.285629
213.128723	1121.116577	1263.889282	1198.354248	54.098347
213.505356	1273.251343	1329.424194	1116.435547	-279.166534
213.881973	1184.311035	1334.105347	1153.884033	-20.312521
214.258560	1158.565186	1392.618652	1160.905640	0.999966
214.635101	1160.905640	1259.208130	1165.586792	4.761988
215.011627	1156.224609	1301.337769	1153.884033	-1.612932
215.388092	1153.884033	1322.402588	1165.586792	6.944493
215.764542	1163.246216	1383.256592	1158.565186	-2.127641
216.140991	1125.797607	1277.932495	1135.159790	6.153870
216.517380	1200.694824	1376.234985	1181.970459	-10.666713
216.893738	1132.819214	1327.083740	1207.716431	38.554241
217.270081	1167.927246	1390.278198	1188.992065	9.473680
217.646378	1170.267822	1380.916016	1086.008545	-40.000000
218.022644	1165.586792	1303.678345	1165.586792	0.000000
218.398880	1132.819214	1324.743164	1114.094971	-9.756074
218.775101	1186.651611	1350.489014	1217.078491	18.571388
219.151291	1163.246216	1371.553833	1142.181396	-10.112362
219.527435	1153.884033	1411.343018	1130.478760	-9.090875
219.903564	1149.203003	1364.532227	1130.478760	-8.695635
220.279648	1095.370728	1418.364624	1165.586792	21.739130
220.655701	1193.673218	1465.175293	1163.246216	-11.206913
221.031738	1165.586792	1420.705078	1226.440674	23.853203
221.407730	1235.802856	1448.791504	1130.478760	-49.450569
221.783707	1153.884033	1572.839966	1135.159790	-4.469263
222.159637	1203.035278	1570.499390	1158.565186	-12.101888
222.535538	1203.035278	1610.288574	1210.056885	1.724137
222.911423	1212.397461	1589.223755	1221.759644	2.484482
223.287247	1167.927246	1640.715454	1233.462280	13.861394
223.663071	1172.608398	1593.904785	1233.462280	14.444435
224.038849	1158.565186	1668.801880	1233.462280	14.678892
224.414597	1179.630005	1640.715454	1151.543579	-6.091371
224.790329	1191.332642	1715.612671	1198.354248	1.339285
225.166016	1163.246216	1708.591064	1212.397461	9.012875
225.541687	1151.543579	1851.363647	1207.716431	8.026756
225.917282	1193.673218	1837.320435	1284.954102	14.181819
226.292892	1163.246216	1980.093140	1284.954102	14.899717
226.668457	1186.651611	1996.476929	1231.121704	5.491319
227.043991	1184.311035	2106.482178	1233.462280	5.329948
227.419510	1207.716431	2282.022217	1322.402588	10.675374
227.794983	1181.970459	2431.816650	1303.678345	9.737829
228.170425	1163.246216	2684.594482	1350.489014	12.307688
228.545807	1167.927246	3030.993652	1416.024048	13.316584
228.921204	1188.992065	3447.608887	1423.045654	10.362697
229.296555	1170.267822	3925.078369	1600.926392	15.632965
229.671875	1221.759644	4519.574219	1528.369751	9.297373
230.047165	1174.948853	4629.579590	1624.331787	13.008132
230.422409	1067.284302	4669.368652	1631.353394	15.659518
230.797653	1174.948853	4379.142090	1549.434570	11.687364
231.172836	1128.138184	4117.001953	1514.326538	12.920909
231.547989	1153.884033	3850.181152	1423.045654	9.982639
231.923141	1252.186523	3452.290039	1387.937622	6.170214
232.298233	1146.862427	3480.376465	1423.045654	11.835506
232.673309	1207.716431	3337.603760	1411.343018	9.560440
233.048340	1149.203003	3309.517334	1357.510620	9.642467
233.423370	1188.992065	3077.804443	1409.002441	11.648080
233.798325	1177.289429	2988.864014	1364.532227	10.335915
234.173279	1179.630005	2988.864014	1413.683472	12.936605
234.548203	1207.716431	3119.934082	1336.445801	6.731941
234.923080	1074.305908	3220.577148	1378.575439	14.176658
235.297928	1142.181396	3314.198486	1371.553833	10.560342
235.672745	1224.100098	3330.582275	1366.872803	6.777779
236.047562	1207.716431	3311.857910	1315.380981	5.116792
236.422302	1198.354248	3131.636719	1404.321411	10.653754
236.797028	1165.586792	3157.382568	1387.937622	11.163335
237.171738	1203.035278	3372.711914	1420.705078	10.032361
237.546402	1142.181396	3379.733398	1385.597046	10.878659
237.921036	1130.478760	3246.322998	1369.213379	11.283185
238.295624	1177.289429	3234.620361	1413.683472	11.490326
238.670212	1200.694824	3283.771484	1420.705078	10.561793
239.044739	1160.905640	3295.474121	1350.489014	8.881579
239.419250	1219.419067	3330.582275	1394.959229	8.314856
239.793732	1188.992065	3452.290039	1401.980835	9.410550
240.168182	1146.862427	3632.511230	1373.894409	9.133711
240.542603	1153.884033	3676.981445	1345.807983	7.606680
240.916977	1102.392334	3936.781006	1472.196899	13.047066
241.291321	1254.527100	4100.618652	1476.877930	7.812498
241.665649	1228.781250	4770.011719	1568.158936	9.583609
242.039948	1167.927246	5212.373047	1624.331787	11.284724
242.414200	1205.375854	5804.528320	1694.547852	10.636134
242.788437	1184.311035	6422.429688	1776.466553	11.304737
243.162628	1263.889282	6932.666504	1706.250488	7.803468
243.536789	1188.992065	6974.796387	1818.596191	10.881878
243.910919	1135.159790	6792.234375	1724.974731	10.426147
244.285034	1207.716431	6427.110840	1582.202148	7.174888
244.659103	1151.543579	6015.176758	1647.737061	10.202115
245.033142	1076.646362	5591.539551	1629.012817	12.234320
245.407150	1245.164917	5425.361816	1570.499390	7.782755
245.781128	1125.797607	5329.399414	1617.310181	11.692654
246.155060	1198.354248	5687.501465	1666.461426	10.427529
246.528976	1174.948853	6338.170410	1696.888306	10.108794
246.902863	1203.035278	7396.092773	1825.617798	10.052910
247.276703	1210.056885	8561.679688	1872.428467	9.009869
247.650543	1165.586792	9348.099609	2172.017090	12.299770
248.024323	1170.267822	9954.297852	2160.314453	11.270984
248.398087	1231.121704	10015.152344	2106.482178	9.965363
248.771790	1158.565186	9863.017578	2155.633301	11.454691
249.145493	1219.419067	8989.997070	2010.520142	10.180723
249.519165	1179.630005	7672.275879	1914.558105	11.319393
249.892776	1109.413940	6995.860840	1668.801880	9.502981
250.266388	1219.419067	6270.294922	1715.612671	9.823912
250.639954	1226.440674	5647.712402	1626.672241	9.052409
251.013489	1139.840820	5472.172363	1572.839966	9.994598
251.386978	1174.948853	5263.864746	1605.607422	10.532341
251.760468	1198.354248	5317.696777	1547.094116	8.465910
252.133896	1231.121704	5458.128906	1617.310181	9.136215
252.507309	1116.435547	5626.647461	1685.185669	12.610275
252.880692	1151.543579	5640.690918	1687.526245	11.939520
253.254028	1135.159790	5902.831055	1750.720703	12.911144
253.627350	1261.548706	5657.074707	1610.288574	7.933974
254.000610	1200.694824	5572.815430	1617.310181	9.528908
254.373871	1238.143311	5163.221680	1619.650635	9.719738
254.747086	1109.413940	4819.163086	1495.602295	10.410094
255.120285	1146.862427	4564.044434	1488.580688	10.000001
255.493439	1165.586792	4493.828613	1521.348145	10.689168
255.866531	1083.667969	4500.850098	1458.153687	10.958904
256.239655	1212.397461	4533.617676	1514.326538	9.090908
256.612701	1158.565186	4587.449707	1458.153687	8.737200
256.985718	1174.948853	4676.390137	1558.796753	10.962568
257.358704	1181.970459	4931.508789	1547.094116	9.737830
257.731689	1149.203003	5188.967285	1558.796753	10.139051
258.104614	1165.586792	5476.853516	1577.520996	9.554831
258.477509	1210.056885	5596.220703	1607.947998	9.071506
258.850403	1158.565186	6176.673340	1673.483032	10.261194
259.223206	1165.586792	6647.121094	1755.401733	10.760034
259.596039	1160.905640	7449.924805	1804.552979	10.234463
259.968811	1191.332642	8933.824219	1935.622925	9.613059
260.341522	1118.776001	9799.822266	2026.903809	10.461041
260.714233	1226.440674	10637.734375	2085.417236	9.127083
261.086914	1177.289429	10820.295898	2162.655029	10.218448
261.459564	1163.246216	10546.453125	2155.633301	10.576203
261.832184	1137.500366	9928.551758	1975.412109	9.531416
262.204742	1188.992065	8500.825195	1858.385254	9.154930
262.577301	1207.716431	7630.145996	1825.617798	9.620991
262.949829	1177.289429	7129.271484	1818.596191	10.774676
263.322296	1179.630005	6738.402344	1743.699097	10.147367
263.694763	1179.630005	6478.602539	1708.591064	9.982332
264.067200	1163.246216	6087.733398	1621.991211	9.315589
264.439575	1193.673218	6061.987305	1675.823486	9.903845
264.811951	1277.932495	5919.214844	1612.629028	7.211295
265.184265	1210.056885	5872.403809	1593.904785	8.232933
265.556519	1221.759644	5631.328613	1572.839966	7.961783
265.928833	1207.716431	5912.192871	1731.996338	11.144278
266.301025	1123.457153	6015.176758	1598.585815	9.712916
266.673248	1200.694824	6396.684082	1626.672241	8.198196
267.045380	1233.462280	6609.672852	1668.801880	8.097518
267.417511	1153.884033	6913.942383	1783.488159	10.930516
267.789612	1186.651611	7005.223145	1685.185669	8.567981
268.161713	1165.586792	7199.487793	1771.785522	10.046548
268.533722	1228.781250	7040.331055	1746.039551	8.900522
268.905731	1139.840820	7070.758301	1774.125977	10.694553
269.277740	1224.100098	7005.223145	1757.742310	9.230771
269.649628	1116.435547	6998.201660	1769.444946	11.102267
270.021576	1249.846069	7098.844727	1678.164063	7.322929
270.393433	1160.905640	7009.904297	1799.871948	10.924371
270.765228	1240.483887	7351.622559	1713.272095	7.736499
271.137085	1170.267822	7510.778809	1724.974731	8.748615
271.508850	1170.267822	8037.399414	1921.579712	10.940694
271.880615	1198.354248	8910.418945	1886.471680	8.922610
272.252319	1153.884033	9432.358398	2050.309326	10.828387
272.623993	1270.910889	9380.867188	1968.390503	8.600288
272.995636	1165.586792	9427.677734	2043.287598	10.623229
273.367279	1160.905640	9085.958984	1919.239258	9.568814
273.738831	1207.716431	8737.219727	1886.471680	9.014608
274.110382	1137.500366	8662.322266	1872.428467	9.766718
274.481903	1156.224609	8315.922852	1944.985107	11.016672
274.853394	1172.608398	8049.102051	1907.536499	10.687541
275.224854	1053.241089	7763.556641	1898.174438	12.591559
275.596283	1153.884033	7588.016602	1706.250488	8.584940
275.967651	1137.500366	7475.670898	1797.531372	10.413589
276.339020	1254.527100	7838.454102	1858.385254	9.171702
276.710358	1132.819214	8039.739746	1797.531372	9.623857
277.081665	1179.630005	8163.788086	1865.406860	9.819034
277.452911	1149.203003	8430.609375	1860.725830	9.771778
277.824097	1146.862427	8351.031250	1849.023193	9.746590
278.195313	1167.927246	8313.583008	1891.152832	10.121193
278.566498	1160.905640	8147.404785	1961.368896	11.457287
278.937622	1263.889282	7957.821289	1865.406860	8.986012
279.308685	1198.354248	8035.059082	1804.552979	8.866826
279.679810	1121.116577	8023.355957	1839.661011	10.410309
280.050812	1088.349121	7784.621582	1804.552979	10.695560
280.421814	1179.630005	8105.274902	1937.963501	10.949644
280.792786	1172.608398	8203.577148	1940.304077	10.918776
281.163696	1256.867676	8552.317383	1998.817383	10.170033
281.534637	1233.462280	9088.299805	2033.925415	10.190702
281.905487	1163.246216	8992.337891	2017.541748	10.911809
282.276337	1107.073364	9558.747070	2139.249512	12.212683
282.647125	1160.905640	10064.303711	2172.017090	11.356466
283.017883	1139.840820	10209.416016	2239.892578	12.129033
283.388641	1200.694824	10076.005859	2092.438965	10.047470
283.759338	1254.527100	10136.859375	2125.206299	9.802372
284.130005	1118.776001	9678.115234	2045.628174	10.828548
284.500641	1118.776001	9724.925781	2106.482178	11.476749
284.871246	1153.884033	9855.995117	2113.503662	11.027434
285.241821	1226.440674	9907.487305	2087.757813	9.921812
285.612396	1118.776001	10209.416016	2113.503662	10.942328
285.982910	1219.419067	10307.718750	2197.762939	10.764873
286.353363	1172.608398	10729.015625	2228.189941	11.045799
286.723816	1160.905640	10822.636719	2179.038574	10.537789
287.094208	1125.797607	11063.711914	2277.341064	11.587376
287.464600	1174.948853	10902.214844	2251.595215	11.068336
287.834961	1121.116577	10637.734375	2298.406006	12.370880
288.205261	1071.965332	10537.091797	2197.762939	11.894163
288.575562	1121.116577	9951.958008	2129.887451	11.423269
288.945801	1177.289429	9827.909180	2202.444092	11.850650
289.316010	1144.521973	9521.298828	2122.865723	11.679238
289.686188	1184.311035	9729.606445	2125.206299	11.010682
290.056335	1224.100098	9884.082031	2174.357666	10.972974
290.426453	1137.500366	10083.027344	2202.444092	11.904762
290.796570	1170.267822	10696.248047	2296.065430	11.818181
291.166595	1207.716431	10874.128906	2251.595215	10.799030
291.536591	1167.927246	10782.847656	2328.833008	12.074003
291.906586	1158.565186	10979.453125	2267.979004	11.296472
292.276520	1146.862427	10471.556641	2186.060303	11.144578
292.646484	1156.224609	10621.350586	2270.319580	11.770524
293.016357	1172.608398	9944.935547	2242.233154	12.193170
293.386200	1207.716431	9870.039063	2246.914307	11.996758
293.756012	1193.673218	10052.600586	2216.487305	11.545574
294.125824	1212.397461	9886.422852	2237.552002	11.818671
294.495575	1191.332642	10373.253906	2298.406006	12.057099
294.865265	1170.267822	10686.885742	2333.513916	12.223313
295.234955	1212.397461	11162.014648	2466.924561	12.608798
295.604614	1233.462280	11183.079102	2363.940918	11.362032
295.974243	1200.694824	11316.490234	2492.670410	12.771864
296.343842	1179.630005	11452.241211	2429.476074	12.166780
296.713379	1224.100098	11782.256836	2546.502686	12.524939
297.082947	1188.992065	12018.650391	2541.821777	12.491897
297.452393	1207.716431	12257.384766	2597.994629	12.582081
297.821869	1179.630005	12540.589844	2595.654053	12.463947
298.191284	1156.224609	12381.433594	2597.994629	12.844037
298.560669	1118.776001	12280.790039	2658.848389	13.797442
298.930054	1203.035278	12262.066406	2539.481201	12.084657
299.299347	1210.056885	11485.008789	2607.356689	13.599089
299.668671	1146.862427	11143.290039	2534.800049	13.884336
300.037903	1170.267822	10888.171875	2509.054199	13.776493
300.407104	1167.927246	10370.913086	2420.113770	13.606306
300.776337	1179.630005	10286.654297	2445.859863	13.903881
301.145508	1132.819214	10092.389648	2260.957520	12.591434
301.514587	1153.884033	10045.579102	2314.789795	13.056067
301.883698	1146.862427	9865.357422	2246.914307	12.617452
302.252777	1181.970459	9668.752930	2277.341064	12.906783
302.621796	1130.478760	9802.163086	2312.449219	13.630229
302.990784	1142.181396	9715.563477	2251.595215	12.940212
303.359741	1160.905640	9614.920898	2237.552002	12.735325
303.728668	1156.224609	9200.645508	2195.422363	12.918242
304.097565	1210.056885	9057.873047	2235.211426	13.062927
304.466431	1207.716431	8905.738281	2225.849365	13.225904
304.835266	1156.224609	8872.970703	2211.806152	13.679102
305.204041	1198.354248	8685.727539	2216.487305	13.598001
305.572784	1109.413940	8985.316406	2270.319580	14.739970
305.941528	1125.797607	8795.733398	2256.276367	14.739091
306.310211	1181.970459	8540.614258	2179.038574	13.549619
306.678864	1219.419067	8786.371094	2179.038574	12.681718
307.047485	1142.181396	8758.284180	2204.784668	13.952061
307.416077	1125.797607	8486.782227	2216.487305	14.817172
307.784668	1151.543579	8568.701172	2277.341064	15.178287
308.153198	1210.056885	8601.468750	2181.379150	13.141228
308.521667	1109.413940	8821.478516	2221.168213	14.415780
308.890106	1151.543579	9130.429688	2221.168213	13.405688
309.258575	1263.889282	9263.839844	2317.130371	13.165595
309.626923	1184.311035	9628.963867	2296.065430	13.165189
309.995300	1212.397461	9359.801758	2387.346436	14.421144
310.363617	1160.905640	9685.136719	2338.195068	13.811091
310.731903	1186.651611	9767.055664	2394.367920	14.075284
311.100159	1170.267822	9755.352539	2258.616943	12.677209
311.468384	1196.013672	9554.066406	2392.027344	14.309717
311.836578	1214.738037	9668.752930	2328.833008	13.178295
312.204742	1158.565186	9919.190430	2356.919434	13.678867
312.572845	1247.505493	9891.103516	2340.535645	12.645546
312.940948	1177.289429	9591.514648	2328.833008	13.685675
313.309021	1153.884033	9198.304688	2244.573730	13.558337
313.677032	1174.948853	9095.321289	2242.233154	13.475178
314.045013	1238.143311	9032.126953	2188.400879	12.192194
314.412964	1188.992065	8683.387695	2239.892578	14.022486
314.780884	1158.565186	9057.873047	2258.616943	13.925926
315.148804	1144.521973	9303.628906	2331.173584	14.543891
315.516632	1174.948853	9476.829102	2408.411133	14.857626
315.884430	1142.181396	9153.834961	2317.130371	14.665500
316.252258	1165.586792	8957.229492	2249.254639	13.908079
316.619995	1177.289429	8437.630859	2134.568604	13.185043
316.987732	1135.159790	8414.225586	2267.979004	15.562700
317.355377	1156.224609	8196.555664	2216.487305	15.059841
