SpectraSuite Data File
++++++++++++++++++++++++++++++++++++
Date: Mon Jan 14 17:36:35 GMT 2008
User: Liliane
Dark Spectrum Present: Yes
Reference Spectrum Present: Yes
Number of Sampled Component Spectra: 1
Spectrometers: USB4A00428
Integration Time (usec): 20000 (USB4A00428)
Spectra Averaged: 50 (USB4A00428)
Boxcar Smoothing: 30 (USB4A00428)
Correct for Electrical Dark: No (USB4A00428)
Strobe/Lamp Enabled: Yes (USB4A00428)
Correct for Detector Non-linearity: No (USB4A00428)
Correct for Stray Light: No (USB4A00428)
Number of Pixels in Processed Spectrum: 3648
>>>>>Begin Processed Spectral Data<<<<<
178.65	0.000
178.86	0.000
179.08	0.000
179.30	93.625
179.51	73.016
179.73	402.632
179.94	16.736
180.16	-30.508
180.38	108.772
180.59	-235.443
180.81	-3.365
181.02	-37.572
181.24	626.471
181.46	197.059
181.67	-22.593
181.89	780.000
182.10	241.489
182.32	80.324
182.54	143.357
182.75	69.399
182.97	-56.410
183.18	14.400
183.40	655.882
183.62	565.306
183.83	48.770
184.05	-16.364
184.26	-7.429
184.48	104.580
184.70	194.565
184.91	-18.182
185.13	76.798
185.34	75.945
185.56	75.927
185.77	74.562
185.99	76.503
186.21	77.209
186.42	69.853
186.64	71.072
186.85	64.959
187.07	62.251
187.29	65.553
187.50	58.153
187.72	59.172
187.93	63.034
188.15	54.738
188.36	53.879
188.58	56.577
188.80	47.721
189.01	48.776
189.23	55.250
189.44	52.422
189.66	52.908
189.87	62.211
190.09	93.107
190.30	80.211
190.52	101.246
190.74	91.136
190.95	61.290
191.17	71.440
191.38	100.797
191.60	105.817
191.81	95.170
192.03	123.028
192.24	126.166
192.46	110.062
192.68	76.218
192.89	35.377
193.11	31.443
193.32	16.746
193.54	28.039
193.75	-32.021
193.97	-135.667
194.18	-71.940
194.40	-52.289
194.61	-72.917
194.83	-145.519
195.04	-5.924
195.26	-34.812
195.48	-20.297
195.69	-45.131
195.91	-44.548
196.12	-65.344
196.34	-46.233
196.55	-56.354
196.77	-48.451
196.98	-25.466
197.20	-32.184
197.41	-58.909
197.63	-96.860
197.84	-156.961
198.06	-118.440
198.27	-163.366
198.49	-144.685
198.70	-180.964
198.92	-140.082
199.13	-800.372
199.35	-2216.000
199.56	861.660
199.78	476.242
199.99	331.307
200.21	265.693
200.43	278.506
200.64	336.624
200.86	222.168
201.07	243.552
201.29	182.486
201.50	135.829
201.72	132.030
201.93	172.803
202.15	201.188
202.36	-11720.000
202.58	-248.438
202.79	-222.105
203.01	-218.987
203.22	2814.894
203.44	465.060
203.65	253.837
203.87	270.896
204.08	267.316
204.29	339.796
204.51	668.212
204.72	437.559
204.94	261.063
205.15	301.079
205.37	735.542
205.58	33575.000
205.80	783.871
206.01	410.359
206.23	186.651
206.44	230.309
206.66	237.975
206.87	489.399
207.09	696.739
207.30	176.854
207.52	155.163
207.73	162.635
207.95	166.895
208.16	143.563
208.38	122.277
208.59	115.744
208.81	102.193
209.02	118.376
209.23	116.577
209.45	116.447
209.66	130.324
209.88	144.385
210.09	158.744
210.31	135.094
210.52	133.481
210.74	177.603
210.95	344.904
211.17	1317.857
211.38	-588.393
211.60	2695.455
211.81	-739.070
212.02	2087.209
212.24	522.291
212.45	402.791
212.67	631.156
212.88	-248.907
213.10	-101.826
213.31	-27.117
213.53	-33.369
213.74	5.364
213.95	-24.686
214.17	-38.685
214.38	-51.724
214.60	-164.312
214.81	-101.887
215.03	-296.124
215.24	-195.493
215.45	-1816.129
215.67	804.242
215.88	4937.500
216.10	1243.373
216.31	1250.000
216.53	8130.000
216.74	-73.805
216.95	-179.940
217.17	-228.470
217.38	-151.804
217.60	-16.939
217.81	-15.244
218.03	-54.748
218.24	-48.945
218.45	-124.685
218.67	2400.000
218.88	571.533
219.10	280.840
219.31	401.974
219.53	140.203
219.74	89.899
219.95	41.982
220.17	41.693
220.38	40.033
220.60	33.244
220.81	36.177
221.02	28.223
221.24	21.684
221.45	13.185
221.67	16.121
221.88	19.385
222.09	19.128
222.31	18.356
222.52	17.797
222.74	17.655
222.95	16.829
223.16	16.706
223.38	17.137
223.59	18.025
223.81	15.574
224.02	15.131
224.23	13.467
224.45	13.579
224.66	12.058
224.87	12.562
225.09	12.819
225.30	12.672
225.52	12.750
225.73	13.868
225.94	14.365
226.16	14.373
226.37	14.848
226.59	14.225
226.80	14.925
227.01	14.692
227.23	13.978
227.44	13.933
227.65	13.004
227.87	13.987
228.08	14.255
228.30	14.682
228.51	13.968
228.72	14.236
228.94	14.120
229.15	14.721
229.36	15.130
229.58	15.090
229.79	14.844
230.00	13.650
230.22	12.849
230.43	13.531
230.65	13.773
230.86	14.107
231.07	13.691
231.29	14.284
231.50	15.072
231.71	14.963
231.93	14.597
232.14	14.381
232.35	14.340
232.57	14.033
232.78	13.836
232.99	13.966
233.21	13.828
233.42	13.796
233.63	13.888
233.85	13.158
234.06	13.629
234.27	13.777
234.49	14.259
234.70	14.517
234.91	13.769
235.13	13.625
235.34	13.919
235.55	13.570
235.77	13.630
235.98	13.320
236.19	13.361
236.41	13.548
236.62	13.398
236.83	13.708
237.05	13.880
237.26	13.911
237.47	13.918
237.69	13.922
237.90	13.738
238.11	13.579
238.33	13.395
238.54	13.186
238.75	13.194
238.97	13.292
239.18	13.351
239.39	12.908
239.61	12.911
239.82	12.611
240.03	12.434
240.24	12.349
240.46	12.568
240.67	12.794
240.88	12.619
241.10	12.352
241.31	12.224
241.52	12.297
241.74	12.387
241.95	12.430
242.16	12.373
242.37	12.355
242.59	12.287
242.80	12.205
243.01	12.304
243.23	12.311
243.44	12.302
243.65	12.240
243.87	12.139
244.08	12.146
244.29	12.124
244.50	11.984
244.72	11.910
244.93	11.937
245.14	11.954
245.36	11.943
245.57	11.961
245.78	11.973
245.99	11.961
246.21	11.949
246.42	11.987
246.63	11.787
246.84	11.773
247.06	11.635
247.27	11.631
247.48	11.647
247.70	11.514
247.91	11.634
248.12	11.666
248.33	11.544
248.55	11.599
248.76	11.549
248.97	11.696
249.18	11.697
249.40	11.505
249.61	11.433
249.82	11.402
250.03	11.251
250.25	11.116
250.46	11.033
250.67	10.993
250.88	11.002
251.10	11.029
251.31	10.951
251.52	10.979
251.74	10.946
251.95	10.913
252.16	10.774
252.37	10.802
252.58	10.829
252.80	10.889
253.01	10.837
253.22	10.743
253.43	10.712
253.65	10.660
253.86	10.697
254.07	10.710
254.28	10.705
254.50	10.621
254.71	10.509
254.92	10.437
255.13	10.310
255.35	10.209
255.56	10.205
255.77	10.259
255.98	10.287
256.19	10.313
256.41	10.172
256.62	10.225
256.83	10.196
257.04	10.118
257.26	10.090
257.47	10.134
257.68	10.123
257.89	10.102
258.10	10.101
258.32	10.058
258.53	10.076
258.74	9.938
258.95	9.865
259.17	9.834
259.38	9.820
259.59	9.823
259.80	9.833
260.01	9.779
260.23	9.718
260.44	9.728
260.65	9.722
260.86	9.629
261.07	9.564
261.29	9.675
261.50	9.644
261.71	9.636
261.92	9.547
262.13	9.627
262.35	9.722
262.56	9.798
262.77	9.848
262.98	9.917
263.19	9.890
263.41	9.883
263.62	9.874
263.83	9.808
264.04	9.726
264.25	9.720
264.46	9.678
264.68	9.654
264.89	9.669
265.10	9.685
265.31	9.734
265.52	9.624
265.74	9.570
265.95	9.571
266.16	9.579
266.37	9.516
266.58	9.426
266.79	9.389
267.01	9.338
267.22	9.382
267.43	9.435
267.64	9.407
267.85	9.294
268.06	9.330
268.28	9.286
268.49	9.304
268.70	9.204
268.91	9.210
269.12	9.157
269.33	9.222
269.55	9.193
269.76	9.143
269.97	9.140
270.18	9.137
270.39	9.071
270.60	9.032
270.81	9.079
271.03	9.017
271.24	9.112
271.45	9.122
271.66	9.325
271.87	9.346
272.08	9.346
272.29	9.285
272.51	9.319
272.72	9.318
272.93	9.340
273.14	9.357
273.35	9.226
273.56	9.208
273.77	9.253
273.99	9.219
274.20	9.149
274.41	9.150
274.62	9.232
274.83	9.294
275.04	9.089
275.25	9.011
275.47	8.934
275.68	8.728
275.89	8.708
276.10	8.770
276.31	8.800
276.52	8.798
276.73	8.865
276.94	8.834
277.15	8.876
277.37	8.802
277.58	8.858
277.79	8.750
278.00	8.737
278.21	8.678
278.42	8.664
278.63	8.679
278.84	8.678
279.05	8.732
279.27	8.641
279.48	8.728
279.69	8.639
279.90	8.733
280.11	8.645
280.32	8.562
280.53	8.576
280.74	8.588
280.95	8.609
281.17	8.563
281.38	8.485
281.59	8.461
281.80	8.521
282.01	8.562
282.22	8.438
282.43	8.507
282.64	8.467
282.85	8.472
283.06	8.436
283.27	8.437
283.48	8.469
283.70	8.399
283.91	8.363
284.12	8.263
284.33	8.181
284.54	8.092
284.75	8.158
284.96	8.155
285.17	8.166
285.38	8.261
285.59	8.281
285.80	8.310
286.01	8.357
286.22	8.383
286.44	8.381
286.65	8.375
286.86	8.326
287.07	8.249
287.28	8.211
287.49	8.177
287.70	8.150
287.91	8.150
288.12	8.166
288.33	8.198
288.54	8.233
288.75	8.219
288.96	8.279
289.17	8.224
289.38	8.254
289.59	8.248
289.81	8.295
290.02	8.243
290.23	8.282
290.44	8.176
290.65	8.292
290.86	8.260
291.07	8.265
291.28	8.322
291.49	8.314
291.70	8.313
291.91	8.287
292.12	8.339
292.33	8.355
292.54	8.317
292.75	8.312
292.96	8.344
293.17	8.402
293.38	8.384
293.59	8.408
293.80	8.408
294.01	8.475
294.22	8.456
294.43	8.480
294.64	8.381
294.85	8.332
295.06	8.361
295.27	8.321
295.48	8.415
295.69	8.453
295.91	8.461
296.12	8.465
296.33	8.463
296.54	8.488
296.75	8.461
296.96	8.435
297.17	8.417
297.38	8.404
297.59	8.381
297.80	8.346
298.01	8.314
298.22	8.276
298.43	8.217
298.64	8.129
298.85	8.121
299.06	7.985
299.27	8.015
299.48	8.038
299.69	8.059
299.90	8.142
300.11	8.156
300.32	8.049
300.53	7.998
300.74	8.084
300.95	8.086
301.16	8.104
301.37	8.174
301.58	8.174
301.79	8.031
302.00	8.085
302.21	7.988
302.42	7.999
302.63	7.960
302.84	8.010
303.04	8.050
303.25	8.088
303.46	7.997
303.67	8.049
303.88	7.979
304.09	7.944
304.30	7.927
304.51	8.005
304.72	7.986
304.93	8.023
305.14	8.021
305.35	8.071
305.56	7.917
305.77	7.882
305.98	7.765
306.19	7.704
306.40	7.792
306.61	7.769
306.82	7.735
307.03	7.664
307.24	7.730
307.45	7.774
307.66	7.863
307.87	7.963
308.08	8.074
308.29	8.010
308.50	7.911
308.71	7.852
308.91	7.891
309.12	7.918
309.33	7.961
309.54	8.039
309.75	8.183
309.96	8.216
310.17	8.201
310.38	8.174
310.59	8.248
310.80	8.307
311.01	8.270
311.22	8.280
311.43	8.382
311.64	8.271
311.85	8.458
312.06	8.375
312.27	8.386
312.47	8.417
312.68	8.366
312.89	8.378
313.10	8.395
313.31	8.443
313.52	8.354
313.73	8.322
313.94	8.277
314.15	8.287
314.36	8.375
314.57	8.516
314.78	8.502
314.99	8.579
315.19	8.672
315.40	8.636
315.61	8.610
315.82	8.583
316.03	8.521
316.24	8.590
316.45	8.546
316.66	8.618
316.87	8.623
317.08	8.602
317.29	8.483
317.49	8.542
317.70	8.495
317.91	8.360
318.12	8.426
318.33	8.527
318.54	8.581
318.75	8.647
318.96	8.752
319.17	8.608
319.38	8.644
319.58	8.692
319.79	8.776
320.00	8.781
320.21	8.779
320.42	8.694
320.63	8.651
320.84	8.495
321.05	8.528
321.26	8.697
321.46	8.712
321.67	8.700
321.88	8.673
322.09	8.682
322.30	8.626
322.51	8.558
322.72	8.576
322.93	8.553
323.13	8.560
323.34	8.497
323.55	8.423
323.76	8.483
323.97	8.443
324.18	8.395
324.39	8.437
324.60	8.338
324.80	8.366
325.01	8.322
325.22	8.356
325.43	8.369
325.64	8.292
325.85	8.361
326.06	8.377
326.26	8.416
326.47	8.487
326.68	8.447
326.89	8.486
327.10	8.375
327.31	8.283
327.52	8.304
327.72	8.260
327.93	8.174
328.14	8.156
328.35	8.270
328.56	8.272
328.77	8.309
328.97	8.308
329.18	8.372
329.39	8.420
329.60	8.438
329.81	8.523
330.02	8.491
330.22	8.504
330.43	8.471
330.64	8.566
330.85	8.595
331.06	8.588
331.27	8.580
331.47	8.551
331.68	8.534
331.89	8.646
332.10	8.580
332.31	8.584
332.52	8.699
332.72	8.727
332.93	8.688
333.14	8.816
333.35	8.885
333.56	8.876
333.76	8.930
333.97	8.804
334.18	8.864
334.39	8.863
334.60	8.943
334.81	8.911
335.01	9.005
335.22	8.955
335.43	8.948
335.64	8.963
335.85	8.989
336.05	9.047
336.26	9.103
336.47	9.123
336.68	9.186
336.89	9.182
337.09	9.232
337.30	9.300
337.51	9.304
337.72	9.364
337.93	9.337
338.13	9.314
338.34	9.331
338.55	9.363
338.76	9.456
338.96	9.486
339.17	9.427
339.38	9.487
339.59	9.501
339.80	9.503
340.00	9.525
340.21	9.517
340.42	9.629
340.63	9.632
340.84	9.707
341.04	9.680
341.25	9.695
341.46	9.715
341.67	9.707
341.87	9.658
342.08	9.614
342.29	9.692
342.50	9.711
342.70	9.738
342.91	9.670
343.12	9.745
343.33	9.775
343.54	9.780
343.74	9.779
343.95	9.753
344.16	9.784
344.37	9.762
344.57	9.721
344.78	9.751
344.99	9.696
345.20	9.685
345.40	9.654
345.61	9.745
345.82	9.672
346.03	9.678
346.23	9.712
346.44	9.797
346.65	9.810
346.86	9.821
347.06	9.788
347.27	9.788
347.48	9.773
347.69	9.813
347.89	9.843
348.10	9.953
348.31	10.012
348.51	10.043
348.72	9.919
348.93	9.938
349.14	9.913
349.34	9.903
349.55	9.924
349.76	9.920
349.97	9.929
350.17	9.935
350.38	9.873
350.59	9.879
350.79	9.914
351.00	9.937
351.21	9.903
351.42	9.818
351.62	9.776
351.83	9.867
352.04	9.865
352.25	9.814
352.45	9.822
352.66	9.948
352.87	9.950
353.07	9.917
353.28	9.884
353.49	9.828
353.69	9.836
353.90	9.883
354.11	9.907
354.32	9.939
354.52	9.968
354.73	9.987
354.94	9.999
355.14	9.994
355.35	9.994
355.56	10.089
355.76	10.095
355.97	10.026
356.18	10.045
356.39	10.067
356.59	10.150
356.80	10.179
357.01	10.217
357.21	10.261
357.42	10.300
357.63	10.321
357.83	10.321
358.04	10.310
358.25	10.261
358.45	10.278
358.66	10.235
358.87	10.252
359.07	10.178
359.28	10.259
359.49	10.316
359.69	10.345
359.90	10.337
360.11	10.398
360.31	10.378
360.52	10.363
360.73	10.329
360.93	10.294
361.14	10.313
361.35	10.424
361.55	10.410
361.76	10.396
361.97	10.448
362.17	10.447
362.38	10.436
362.59	10.438
362.79	10.466
363.00	10.503
363.21	10.557
363.41	10.580
363.62	10.573
363.83	10.583
364.03	10.580
364.24	10.627
364.45	10.548
364.65	10.524
364.86	10.573
365.07	10.612
365.27	10.595
365.48	10.576
365.68	10.554
365.89	10.600
366.10	10.617
366.30	10.621
366.51	10.646
366.72	10.632
366.92	10.615
367.13	10.625
367.34	10.650
367.54	10.604
367.75	10.597
367.95	10.657
368.16	10.647
368.37	10.620
368.57	10.627
368.78	10.583
368.99	10.626
369.19	10.612
369.40	10.621
369.60	10.577
369.81	10.537
370.02	10.513
370.22	10.590
370.43	10.564
370.64	10.563
370.84	10.559
371.05	10.527
371.25	10.598
371.46	10.593
371.67	10.617
371.87	10.588
372.08	10.594
372.28	10.582
372.49	10.543
372.70	10.514
372.90	10.459
373.11	10.472
373.31	10.439
373.52	10.484
373.73	10.494
373.93	10.459
374.14	10.485
374.34	10.466
374.55	10.471
374.76	10.551
374.96	10.591
375.17	10.626
375.37	10.624
375.58	10.649
375.78	10.652
375.99	10.678
376.20	10.714
376.40	10.700
376.61	10.659
376.81	10.648
377.02	10.709
377.23	10.801
377.43	10.762
377.64	10.756
377.84	10.728
378.05	10.748
378.25	10.792
378.46	10.788
378.66	10.854
378.87	10.835
379.08	10.845
379.28	10.893
379.49	10.882
379.69	10.884
379.90	10.910
380.10	10.959
380.31	10.971
380.52	10.963
380.72	10.969
380.93	10.938
381.13	11.012
381.34	11.050
381.54	11.039
381.75	11.035
381.95	11.051
382.16	11.110
382.37	11.167
382.57	11.167
382.78	11.141
382.98	11.168
383.19	11.178
383.39	11.239
383.60	11.287
383.80	11.254
384.01	11.225
384.21	11.250
384.42	11.283
384.62	11.277
384.83	11.304
385.04	11.329
385.24	11.376
385.45	11.402
385.65	11.426
385.86	11.441
386.06	11.435
386.27	11.448
386.47	11.458
386.68	11.467
386.88	11.487
387.09	11.492
387.29	11.493
387.50	11.470
387.70	11.466
387.91	11.499
388.11	11.506
388.32	11.510
388.52	11.492
388.73	11.523
388.93	11.539
389.14	11.592
389.34	11.609
389.55	11.622
389.75	11.580
389.96	11.584
390.16	11.581
390.37	11.581
390.57	11.606
390.78	11.581
390.98	11.610
391.19	11.606
391.39	11.584
391.60	11.580
391.80	11.594
392.01	11.586
392.21	11.598
392.42	11.592
392.62	11.576
392.83	11.567
393.03	11.540
393.24	11.549
393.44	11.561
393.65	11.541
393.85	11.524
394.06	11.549
394.26	11.521
394.47	11.492
394.67	11.496
394.88	11.485
395.08	11.488
395.29	11.497
395.49	11.508
395.70	11.495
395.90	11.514
396.10	11.476
396.31	11.471
396.51	11.502
396.72	11.492
396.92	11.491
397.13	11.478
397.33	11.493
397.54	11.506
397.74	11.497
397.95	11.510
398.15	11.554
398.36	11.565
398.56	11.554
398.76	11.555
398.97	11.569
399.17	11.558
399.38	11.582
399.58	11.576
399.79	11.572
399.99	11.575
400.20	11.568
400.40	11.566
400.61	11.564
400.81	11.540
401.01	11.534
401.22	11.488
401.42	11.532
401.63	11.544
401.83	11.534
402.04	11.523
402.24	11.550
402.44	11.586
402.65	11.577
402.85	11.591
403.06	11.609
403.26	11.623
403.47	11.601
403.67	11.588
403.87	11.634
404.08	11.655
404.28	11.630
404.49	11.645
404.69	11.670
404.90	11.689
405.10	11.703
405.30	11.727
405.51	11.751
405.71	11.730
405.92	11.775
406.12	11.770
406.32	11.778
406.53	11.758
406.73	11.792
406.94	11.862
407.14	11.847
407.34	11.842
407.55	11.861
407.75	11.871
407.96	11.869
408.16	11.906
408.37	11.886
408.57	11.928
408.77	11.922
408.98	11.926
409.18	11.924
409.38	11.938
409.59	11.940
409.79	11.909
410.00	11.943
410.20	11.920
410.40	11.892
410.61	11.871
410.81	11.860
411.02	11.877
411.22	11.879
411.42	11.908
411.63	11.913
411.83	11.919
412.03	11.935
412.24	11.932
412.44	11.944
412.65	11.957
412.85	11.955
413.05	11.960
413.26	11.981
413.46	12.016
413.66	12.029
413.87	12.019
414.07	12.002
414.28	12.025
414.48	12.035
414.68	12.034
414.89	11.997
415.09	12.008
415.29	12.031
415.50	12.038
415.70	12.060
415.90	12.065
416.11	12.075
416.31	12.084
416.52	12.066
416.72	12.066
416.92	12.076
417.13	12.086
417.33	12.070
417.53	12.074
417.74	12.065
417.94	12.089
418.14	12.103
418.35	12.094
418.55	12.116
418.75	12.125
418.96	12.113
419.16	12.103
419.36	12.096
419.57	12.105
419.77	12.108
419.97	12.100
420.18	12.099
420.38	12.096
420.58	12.091
420.79	12.088
420.99	12.096
421.19	12.107
421.40	12.106
421.60	12.106
421.80	12.094
422.01	12.092
422.21	12.088
422.41	12.062
422.62	12.070
422.82	12.083
423.02	12.086
423.22	12.075
423.43	12.074
423.63	12.064
423.83	12.051
424.04	12.050
424.24	12.051
424.44	12.061
424.65	12.050
424.85	12.067
425.05	12.063
425.26	12.065
425.46	12.055
425.66	12.064
425.86	12.056
426.07	12.061
426.27	12.054
426.47	12.046
426.68	12.040
426.88	12.024
427.08	12.040
427.28	12.063
427.49	12.058
427.69	12.043
427.89	12.006
428.10	11.980
428.30	11.980
428.50	11.965
428.70	11.964
428.91	11.968
429.11	11.972
429.31	11.966
429.52	11.930
429.72	11.916
429.92	11.906
430.12	11.895
430.33	11.869
430.53	11.860
430.73	11.851
430.93	11.820
431.14	11.824
431.34	11.858
431.54	11.870
431.75	11.815
431.95	11.802
432.15	11.782
432.35	11.783
432.56	11.782
432.76	11.786
432.96	11.802
433.16	11.807
433.37	11.783
433.57	11.769
433.77	11.781
433.97	11.785
434.18	11.792
434.38	11.794
434.58	11.820
434.78	11.830
434.99	11.831
435.19	11.833
435.39	11.797
435.59	11.827
435.80	11.845
436.00	11.843
436.20	11.833
436.40	11.841
436.61	11.832
436.81	11.833
437.01	11.844
437.21	11.837
437.41	11.832
437.62	11.821
437.82	11.832
438.02	11.824
438.22	11.810
438.43	11.812
438.63	11.846
438.83	11.862
439.03	11.857
439.23	11.878
439.44	11.872
439.64	11.867
439.84	11.886
440.04	11.887
440.25	11.915
440.45	11.955
440.65	11.946
440.85	11.968
441.05	11.966
441.26	11.959
441.46	11.950
441.66	11.948
441.86	11.962
442.06	11.977
442.27	11.970
442.47	11.982
442.67	11.975
442.87	11.975
443.07	11.976
443.28	11.985
443.48	11.968
443.68	11.946
443.88	11.961
444.08	11.974
444.29	11.972
444.49	11.957
444.69	11.963
444.89	11.974
445.09	11.988
445.30	11.947
445.50	11.949
445.70	11.951
445.90	11.963
446.10	11.950
446.30	11.940
446.51	11.925
446.71	11.922
446.91	11.922
447.11	11.923
447.31	11.902
447.51	11.905
447.72	11.920
447.92	11.926
448.12	11.917
448.32	11.901
448.52	11.914
448.72	11.907
448.93	11.898
449.13	11.904
449.33	11.892
449.53	11.889
449.73	11.875
449.93	11.890
450.14	11.887
450.34	11.890
450.54	11.885
450.74	11.874
450.94	11.848
451.14	11.843
451.35	11.851
451.55	11.844
451.75	11.818
451.95	11.805
452.15	11.789
