##TITLE= SPECTRASUITE EXPORTED SPECTRUM
##DATA TYPE= LINK
##BLOCKS= 3
##ORIGIN= OCEANOPTICS EXPORT
##OWNER= hugo
##TITLE= SPECTRASUITE EXPORTED SPECTRA: PROCESSED SPECTRUM
##JCAMP-DX= 5 $$EXPORTED SPECTRASUITE FILE
##DATA TYPE= UV/VIS SPECTRUM
##SAMPLE DESCRIPTION= PROCESSED SPECTRUM
##BLOCK_ID=1
##ORIGIN= OCEANOPTICS EXPORT
##OWNER= hugo
##SPECTROMETER/DATA SYSTEM= OCEANOPTICS EXPORT
##DATA PROCESSING= DARK:Yes REFERENCE:Yes
##DATA PROCESSING= BOXCAR:0 ELECTRICAL DARK: false
##.ACQUISITION TIME= 400
##.AVERAGES= 5
##XUNITS= NANOMETERS
##YUNITS= Transmission (%)
##XFACTOR= 1.0
##YFACTOR= 1.0
##FIRSTX= 176.36
##LASTX= 893.69
##FIRSTY= 32822.795
##MINY= 1630.183
##MAXY= 32822.795
##NPOINTS= 3648
##XYPOINTS= (XY..XY)
176.36, 32822.795
176.58, 32822.795
176.80, 32822.795
177.02, 1630.183
177.24, 1646.157
177.47, 2556.684
177.69, 2555.455
177.91, 3033.042
178.13, 2658.673
178.35, 2426.024
178.57, 2361.308
178.79, 2671.370
179.01, 2763.529
179.23, 2251.537
179.46, 2419.061
179.68, 2679.153
179.90, 2537.843
180.12, 2246.622
180.34, 2350.659
180.56, 2566.924
180.78, 2899.924
181.00, 2266.692
181.22, 2404.315
181.44, 2663.179
181.66, 2756.976
181.89, 2398.581
182.11, 2259.729
182.33, 2690.212
182.55, 3147.728
182.77, 2421.928
182.99, 2529.651
183.21, 2335.913
183.43, 2659.492
183.65, 2277.751
183.87, 2182.315
184.09, 2893.780
184.31, 2827.835
184.53, 2273.655
184.76, 2276.522
184.98, 2599.282
185.20, 2927.367
185.42, 2419.470
185.64, 2262.596
185.86, 2992.082
186.08, 3304.602
186.30, 2241.297
186.52, 2255.633
186.74, 2848.725
186.96, 2783.190
187.18, 2360.489
187.40, 2201.976
187.62, 2997.817
187.84, 2981.433
188.06, 2398.171
188.28, 2307.651
188.51, 2923.271
188.73, 2979.795
188.95, 2350.249
189.17, 2421.518
189.39, 2834.798
189.61, 2810.223
189.83, 2432.987
190.05, 2380.559
190.27, 3067.857
190.49, 2810.632
190.71, 2224.094
190.93, 2249.079
191.15, 2517.773
191.37, 2833.160
191.59, 2361.308
191.81, 2433.396
192.03, 2693.488
192.25, 2881.082
192.47, 2242.116
192.69, 2346.563
192.91, 2771.721
193.13, 2774.998
193.35, 2260.548
193.57, 2487.872
193.79, 2568.562
194.01, 2977.337
194.23, 2344.105
194.45, 2264.644
194.67, 2940.064
194.89, 2577.573
195.11, 2268.330
195.33, 2148.319
195.55, 2694.717
195.77, 2829.474
195.99, 2372.777
196.21, 2317.891
196.43, 2841.761
196.65, 2647.614
196.87, 2461.249
197.09, 2316.253
197.31, 2951.123
197.53, 2980.614
197.75, 2374.415
197.97, 2373.186
198.19, 2956.448
198.41, 3117.008
198.63, 2321.577
198.85, 2323.625
199.07, 2925.728
199.29, 2542.758
199.51, 2356.802
199.73, 2462.068
199.95, 2574.706
200.17, 2844.219
200.39, 2396.533
200.61, 2416.603
200.83, 2606.245
201.05, 2891.732
201.27, 2253.175
201.49, 2338.780
201.71, 2956.448
201.93, 2925.319
202.15, 2308.470
202.37, 2327.312
202.59, 2869.204
202.81, 2679.972
203.03, 2373.596
203.25, 2351.887
203.47, 2686.525
203.69, 2729.942
203.91, 2372.777
204.13, 2230.238
204.35, 2547.264
204.57, 3017.068
204.79, 2279.799
205.01, 2262.186
205.23, 2929.005
205.45, 2703.728
205.67, 2125.382
205.89, 2326.492
206.10, 2929.414
206.32, 2491.149
206.54, 2240.068
206.76, 2315.843
206.98, 2764.348
207.20, 2591.500
207.42, 2346.563
207.64, 2158.559
207.86, 2602.149
208.08, 3203.023
208.30, 2269.559
208.52, 2236.791
208.74, 2909.754
208.96, 2908.525
209.18, 2142.585
209.40, 2527.603
209.62, 2633.688
209.83, 2712.330
210.05, 2245.393
210.27, 2299.050
210.49, 2717.655
210.71, 2565.286
210.93, 2389.160
211.15, 2385.064
211.37, 2528.832
211.59, 2614.027
211.81, 2202.795
212.03, 2166.341
212.25, 2852.820
212.47, 2681.201
212.68, 2264.644
212.90, 2375.234
213.12, 2753.289
213.34, 2913.440
213.56, 2177.810
213.78, 2244.983
214.00, 3043.282
214.22, 2541.120
214.44, 2342.876
214.66, 2304.784
214.88, 2667.684
215.09, 2722.979
215.31, 2111.456
215.53, 2292.087
215.75, 2893.370
215.97, 2502.618
216.19, 2385.884
216.41, 2427.253
216.63, 2650.072
216.85, 3015.839
217.06, 2408.002
217.28, 2283.485
217.50, 2578.393
217.72, 2947.437
217.94, 2381.378
218.16, 2260.138
218.38, 2539.891
218.60, 2559.961
218.82, 2325.264
219.03, 2340.009
219.25, 2730.352
219.47, 2773.769
219.69, 2268.740
219.91, 2390.389
220.13, 3092.023
220.35, 2765.987
220.57, 2325.673
220.78, 2533.747
221.00, 2777.455
221.22, 2940.064
221.44, 2304.784
221.66, 2217.541
221.88, 3024.440
222.10, 2497.293
222.31, 2175.762
222.53, 2203.205
222.75, 2558.732
222.97, 2708.234
223.19, 2326.902
223.41, 2381.788
223.63, 2603.787
223.84, 3142.403
224.06, 2349.020
224.28, 2328.131
224.50, 2915.079
224.72, 2634.507
224.94, 2256.042
225.16, 2389.570
225.37, 3118.237
225.59, 2720.931
225.81, 2331.408
226.03, 2414.146
226.25, 3019.935
226.47, 2556.275
226.68, 2324.854
226.90, 2333.865
227.12, 2601.330
227.34, 2897.466
227.56, 2228.190
227.78, 2283.076
227.99, 2708.643
228.21, 2761.071
228.43, 2404.315
228.65, 2347.382
228.87, 2788.924
229.09, 2646.385
229.30, 2371.548
229.52, 2236.382
229.74, 2800.392
229.96, 2956.857
230.18, 2309.699
230.39, 2285.943
230.61, 2788.924
230.83, 2719.293
231.05, 2214.264
231.27, 2423.976
231.49, 2572.658
231.70, 2838.075
231.92, 2266.282
232.14, 2278.160
232.36, 2587.404
232.58, 2945.389
232.79, 2241.707
233.01, 2281.437
233.23, 2745.097
233.45, 2650.891
233.67, 2242.116
233.88, 2298.231
234.10, 3070.724
234.32, 2962.592
234.54, 2292.087
234.75, 2290.039
234.97, 2803.669
235.19, 3000.274
235.41, 2340.419
235.63, 2314.205
235.84, 3062.942
236.06, 2523.507
236.28, 2273.655
236.50, 2217.131
236.72, 2492.788
236.93, 2577.573
237.15, 2280.208
237.37, 2235.153
237.59, 2923.271
237.80, 2555.865
238.02, 2245.803
238.24, 2240.887
238.46, 2902.381
238.67, 3041.643
238.89, 2414.146
239.11, 2382.197
239.33, 2634.507
239.55, 2633.278
239.76, 2387.112
239.98, 2211.397
240.20, 2753.699
240.42, 2630.821
240.63, 2365.813
240.85, 2288.400
241.07, 2835.208
241.29, 2939.245
241.50, 2253.585
241.72, 2357.622
241.94, 2707.824
242.16, 3108.407
242.37, 2294.544
242.59, 2255.633
242.81, 2466.574
243.03, 2896.237
243.24, 2260.548
243.46, 2412.507
243.68, 2930.234
243.90, 2543.987
244.11, 2220.408
244.33, 2249.489
244.55, 2671.370
244.76, 2625.906
244.98, 2374.005
245.20, 2242.935
245.42, 2807.356
245.63, 2623.448
245.85, 2210.168
246.07, 2255.223
246.29, 2777.046
246.50, 2774.998
246.72, 2339.600
246.94, 2368.271
247.15, 2585.765
247.37, 3005.189
247.59, 2234.334
247.81, 2403.906
248.02, 2711.101
248.24, 2854.868
248.46, 2287.991
248.67, 2242.935
248.89, 2808.994
249.11, 2865.108
249.33, 2421.518
249.54, 2252.356
249.76, 2696.356
249.98, 2499.341
250.19, 2242.935
250.41, 2222.046
250.63, 2790.153
250.84, 2597.644
251.06, 2335.913
251.28, 2375.644
251.50, 2448.551
251.71, 2713.559
251.93, 2293.725
252.15, 2272.836
252.36, 2627.954
252.58, 3166.160
252.80, 2298.640
253.01, 2478.452
253.23, 2871.662
253.45, 2657.854
253.66, 2299.869
253.88, 2361.308
254.10, 2593.138
254.31, 2854.459
254.53, 2181.496
254.75, 2371.548
254.97, 3024.031
255.18, 2736.905
255.40, 2316.253
255.62, 2258.500
255.83, 2612.389
256.05, 2846.677
256.27, 2313.795
256.48, 2384.655
256.70, 2808.994
256.92, 2856.507
257.13, 2445.275
257.35, 2197.470
257.57, 2933.101
257.78, 2769.673
258.00, 2498.112
258.21, 2453.876
258.43, 2924.090
258.65, 2785.237
258.86, 2315.024
259.08, 2320.758
259.30, 2897.876
259.51, 3041.234
259.73, 2176.172
259.95, 2394.485
260.16, 2873.300
260.38, 3058.846
260.60, 2186.002
260.81, 2285.533
261.03, 2799.164
261.25, 2473.946
261.46, 2306.832
261.68, 2257.271
261.89, 2659.492
262.11, 2660.311
262.33, 2334.684
262.54, 2072.544
262.76, 2819.643
262.98, 2820.463
263.19, 2225.323
263.41, 2304.784
263.62, 2645.976
263.84, 2738.953
264.06, 2304.784
264.27, 2273.245
264.49, 2739.773
264.71, 2696.765
264.92, 2354.754
265.14, 2364.994
265.35, 2806.946
265.57, 2759.433
265.79, 2306.832
266.00, 2355.164
266.22, 3003.141
266.43, 2533.747
266.65, 2387.522
266.87, 2168.389
267.08, 2391.208
267.30, 2460.430
267.51, 2429.710
267.73, 2311.338
267.95, 3050.245
268.16, 2581.260
268.38, 2302.326
268.59, 2405.544
268.81, 2725.437
269.03, 2893.780
269.24, 2262.186
269.46, 2359.260
269.67, 2697.175
269.89, 2649.662
270.11, 2325.264
270.32, 2378.511
270.54, 2645.976
270.75, 3192.783
270.97, 2180.677
271.19, 2264.234
271.40, 2659.083
271.62, 2504.666
271.83, 2181.496
272.05, 2156.511
272.26, 2756.566
272.48, 2816.776
272.70, 2422.337
272.91, 2365.814
273.13, 2815.138
273.34, 2853.230
273.56, 2358.850
273.77, 2379.330
273.99, 3092.842
274.21, 3113.322
274.42, 2542.348
274.64, 2427.253
274.85, 2741.001
275.07, 2627.544
275.28, 2378.920
275.50, 2476.813
275.71, 2560.371
275.93, 2519.002
276.15, 2461.658
276.36, 2441.998
276.58, 2908.525
276.79, 2640.241
277.01, 2434.625
277.22, 2494.836
277.44, 3290.676
277.65, 2894.189
277.87, 2452.238
278.08, 2389.980
278.30, 3204.662
278.52, 2764.758
278.73, 2510.400
278.95, 2342.467
279.16, 2584.946
279.38, 2767.625
279.59, 2569.382
279.81, 2290.448
280.02, 2978.975
280.24, 3056.798
280.45, 2489.920
280.67, 2340.009
280.88, 2763.119
281.10, 2951.123
281.31, 2518.592
281.53, 2466.164
281.74, 2851.182
281.96, 2621.400
282.17, 2387.932
282.39, 2406.773
282.60, 2568.972
282.82, 2712.739
283.04, 2409.640
283.25, 2430.120
283.47, 2770.083
283.68, 2766.806
283.90, 2521.869
284.11, 2392.437
284.33, 2566.924
284.54, 2682.839
284.76, 2349.839
284.97, 2515.725
285.19, 2685.706
285.40, 2849.134
285.62, 2548.902
285.83, 2365.404
286.05, 2789.333
286.26, 2727.075
286.48, 2480.909
286.69, 2471.898
286.91, 2568.153
287.12, 3058.437
287.33, 2319.939
287.55, 2335.094
287.76, 2902.381
287.98, 2876.167
288.19, 2692.669
288.41, 2241.707
288.62, 2745.507
288.84, 2837.256
289.05, 2281.437
289.27, 2320.349
289.48, 2904.839
289.70, 2555.455
289.91, 2509.990
290.13, 2436.673
290.34, 2835.618
290.56, 2784.828
290.77, 2459.201
290.99, 2380.559
291.20, 2587.813
291.41, 2557.913
291.63, 2415.374
291.84, 2550.950
292.06, 2802.031
292.27, 2658.263
292.49, 2371.957
292.70, 2595.596
292.92, 2791.381
293.13, 2861.422
293.35, 2396.123
293.56, 2437.902
293.77, 2525.145
293.99, 2908.116
294.20, 2358.441
294.42, 2415.374
294.63, 2774.998
294.85, 2997.817
295.06, 2355.164
295.28, 2414.555
295.49, 2424.795
295.70, 2968.736
295.92, 2403.087
296.13, 2548.083
296.35, 2981.023
296.56, 2729.942
296.78, 2318.710
296.99, 2412.917
297.20, 2683.249
297.42, 2912.212
297.63, 2493.197
297.85, 2421.928
298.06, 2601.740
298.28, 2797.116
298.49, 2380.149
298.70, 2443.636
298.92, 2962.592
299.13, 2967.097
299.35, 2516.134
299.56, 2428.891
299.77, 2467.802
299.99, 2660.721
300.20, 2500.160
300.42, 2378.101
300.63, 2779.094
300.85, 2951.123
301.06, 2564.876
301.27, 2475.994
301.49, 2720.931
301.70, 2865.927
301.92, 2501.799
302.13, 2451.419
302.34, 2679.972
302.56, 2955.628
302.77, 2424.385
302.99, 2473.537
303.20, 2761.891
303.41, 2762.300
303.63, 2482.957
303.84, 2396.533
304.05, 2561.599
304.27, 2843.809
304.48, 2521.869
304.70, 2360.079
304.91, 2966.278
305.12, 2795.477
305.34, 2335.504
305.55, 2386.703
305.77, 2521.869
305.98, 2889.274
306.19, 2439.540
306.41, 2492.788
306.62, 2623.858
306.83, 2931.053
307.05, 2459.201
307.26, 2383.016
307.47, 3006.009
307.69, 3014.200
307.90, 2425.614
308.12, 2484.596
308.33, 2758.204
308.54, 3087.108
308.76, 2293.315
308.97, 2502.208
309.18, 2795.887
309.40, 2586.994
309.61, 2521.869
309.82, 2409.640
310.04, 2722.570
310.25, 2978.156
310.46, 2327.312
310.68, 2433.806
310.89, 2809.404
311.11, 2566.924
311.32, 2444.865
311.53, 2400.629
311.75, 2904.839
311.96, 2841.352
312.17, 2528.832
312.39, 2499.341
312.60, 2775.407
312.81, 2936.787
313.03, 2476.813
313.24, 2454.695
313.45, 2702.909
313.67, 2861.012
313.88, 2507.943
314.09, 2469.441
314.31, 2725.846
314.52, 2807.356
314.73, 2493.197
314.95, 2380.559
315.16, 3084.651
315.37, 2956.857
315.58, 2420.699
315.80, 2295.363
316.01, 2583.308
316.22, 2741.821
316.44, 2498.931
316.65, 2666.455
316.86, 2747.145
317.08, 2892.141
317.29, 2561.599
317.50, 2409.230
317.72, 2665.636
317.93, 2986.758
318.14, 2487.053
318.35, 2645.566
318.57, 2716.426
318.78, 3009.285
318.99, 2536.204
319.21, 2312.566
319.42, 2994.949
319.63, 2704.138
319.85, 2353.116
320.06, 2561.190
320.27, 2758.614
320.48, 2474.765
320.70, 2372.367
320.91, 2492.788
321.12, 2866.747
321.34, 2814.728
321.55, 2469.850
321.76, 2486.644
321.97, 2991.263
322.19, 2708.643
322.40, 2516.954
322.61, 2584.537
322.83, 2683.658
323.04, 2816.367
323.25, 2546.854
323.46, 2533.747
323.68, 2871.662
323.89, 2589.452
324.10, 2463.297
324.31, 2609.931
324.53, 2822.920
324.74, 3003.141
324.95, 2508.352
325.16, 2691.031
325.38, 2939.654
325.59, 2935.149
325.80, 2505.075
326.01, 2495.245
326.23, 3026.898
326.44, 2872.481
326.65, 2528.422
326.86, 2686.116
327.08, 2861.832
327.29, 2872.891
327.50, 2506.304
327.71, 2664.407
327.93, 2433.396
328.14, 2686.525
328.35, 2449.371
328.56, 2601.739
328.78, 2905.248
328.99, 3251.765
329.20, 2518.592
329.41, 2605.016
329.63, 2851.592
329.84, 2778.684
330.05, 2557.503
330.26, 2488.692
330.48, 2504.666
330.69, 2680.382
330.90, 2498.931
331.11, 2383.016
331.32, 2721.750
331.54, 2929.005
331.75, 2498.522
331.96, 2585.765
332.17, 3109.226
332.39, 2600.101
332.60, 2470.260
332.81, 2423.976
333.02, 2609.112
333.23, 2574.706
333.45, 2530.470
333.66, 2640.651
333.87, 2791.381
334.08, 2754.518
334.29, 2575.116
334.51, 2630.411
334.72, 2934.330
334.93, 2883.950
335.14, 2609.112
335.35, 2558.732
335.57, 2598.872
335.78, 2812.271
335.99, 2477.223
336.20, 2401.448
336.41, 2719.293
336.63, 3010.514
336.84, 2405.544
337.05, 2698.404
337.26, 3266.101
337.47, 2623.448
337.69, 2620.581
337.90, 2488.282
338.11, 2967.916
338.32, 3268.968
338.53, 2457.972
338.74, 2553.817
338.96, 3064.580
339.17, 3274.292
339.38, 2960.544
339.59, 2677.924
339.80, 2947.437
340.01, 3072.363
340.23, 2678.334
340.44, 2525.145
340.65, 2977.337
340.86, 2931.872
341.07, 2540.300
341.28, 2707.415
341.50, 3017.477
341.71, 2795.068
341.92, 2677.105
342.13, 2475.175
342.34, 2771.721
342.55, 2704.548
342.77, 2564.876
342.98, 2539.481
343.19, 2968.326
343.40, 3008.056
343.61, 2541.120
343.82, 2754.518
344.03, 2634.917
344.25, 3114.960
344.46, 2563.238
344.67, 2776.226
344.88, 2852.001
345.09, 2979.385
345.30, 2619.762
345.51, 2750.832
345.73, 3006.828
345.94, 2981.842
346.15, 2822.511
346.36, 2813.909
346.57, 3034.680
346.78, 2807.765
346.99, 2654.987
347.21, 2823.739
347.42, 3006.828
347.63, 2878.215
347.84, 2743.049
348.05, 2680.791
348.26, 2924.909
348.47, 2713.149
348.68, 2539.891
348.89, 2760.252
349.11, 3029.765
349.32, 3120.695
349.53, 2527.193
349.74, 2849.544
349.95, 2727.894
350.16, 3041.234
350.37, 2489.920
350.58, 2722.160
350.79, 3049.016
351.01, 3136.259
351.22, 2781.961
351.43, 2693.079
351.64, 3076.459
351.85, 3025.669
352.06, 2636.965
352.27, 2684.887
352.48, 2876.167
352.69, 3180.086
352.90, 2778.274
353.12, 2862.241
353.33, 2982.252
353.54, 2908.525
353.75, 2750.422
353.96, 2734.448
354.17, 2931.872
354.38, 3045.739
354.59, 2792.201
354.80, 2742.230
355.01, 2855.688
355.22, 2964.640
355.43, 2611.160
355.64, 2847.496
355.86, 3135.031
356.07, 3232.104
356.28, 2706.186
356.49, 2535.385
356.70, 2944.979
356.91, 3405.772
357.12, 2736.086
357.33, 2782.370
357.54, 3079.326
357.75, 3035.909
357.96, 2638.193
358.17, 2796.706
358.38, 2936.787
358.59, 3055.160
358.80, 2679.153
359.02, 2797.525
359.23, 2800.802
359.44, 3212.444
359.65, 2597.644
359.86, 2882.311
360.07, 2950.713
360.28, 2831.931
360.49, 2692.669
360.70, 2871.252
360.91, 2829.883
361.12, 3094.890
361.33, 2809.813
361.54, 2862.241
361.75, 3167.798
361.96, 2999.045
362.17, 2936.378
362.38, 2804.079
362.59, 3284.123
362.80, 3313.204
363.01, 2731.990
363.22, 2830.702
363.43, 2877.806
363.64, 3269.787
363.85, 2745.507
364.06, 2857.326
364.27, 2980.614
364.48, 3191.145
364.69, 2603.378
364.90, 2833.570
365.11, 3058.846
365.33, 3180.905
365.54, 2774.998
365.75, 3004.780
365.96, 3290.267
366.17, 3023.621
366.38, 2764.758
366.59, 2910.983
366.80, 2892.551
367.01, 3285.351
367.22, 2661.131
367.43, 2861.422
367.64, 3138.717
367.85, 3185.820
368.06, 2718.064
368.27, 2820.463
368.48, 3381.606
368.69, 2861.012
368.90, 2885.588
369.11, 2803.260
369.32, 3238.248
369.53, 3122.743
369.74, 2868.385
369.94, 2889.274
370.15, 3091.204
370.36, 3289.038
370.57, 2826.197
370.78, 2951.533
370.99, 3109.226
371.20, 3397.580
371.41, 2897.466
371.62, 2965.459
371.83, 3016.248
372.04, 3123.152
372.25, 2854.049
372.46, 2942.931
372.67, 3084.651
372.88, 3406.591
373.09, 2736.905
373.30, 2889.274
373.51, 3128.067
373.72, 3224.732
373.93, 2897.466
374.14, 2799.164
374.35, 3185.001
374.56, 3489.329
374.77, 2989.215
374.98, 2716.426
375.19, 3409.458
375.40, 3294.772
375.61, 2834.389
375.82, 3056.798
376.03, 3231.695
376.23, 3418.060
376.44, 2896.647
376.65, 2956.857
376.86, 3037.138
377.07, 3359.898
377.28, 3024.031
377.49, 2840.533
377.70, 3520.868
377.91, 3171.075
378.12, 2852.820
378.33, 2922.861
378.54, 2965.868
378.75, 3531.927
378.96, 2879.854
379.17, 2902.381
379.37, 3212.853
379.58, 3129.706
379.79, 2790.562
380.00, 2871.252
380.21, 3081.374
380.42, 3313.613
380.63, 2926.547
380.84, 2873.300
381.05, 3182.953
381.26, 3409.868
381.47, 2956.448
381.68, 3105.540
381.89, 3405.772
382.09, 3260.776
382.30, 3170.256
382.51, 3051.064
382.72, 3349.248
382.93, 3174.761
383.14, 2910.573
383.35, 3055.569
383.56, 3281.665
383.77, 3250.946
383.98, 2990.034
384.18, 3111.684
384.39, 3376.691
384.60, 3405.362
384.81, 2886.817
385.02, 2935.558
385.23, 3179.676
385.44, 3233.333
385.65, 2880.673
385.86, 3019.116
386.06, 3277.569
386.27, 3568.381
386.48, 3053.521
386.69, 3171.075
386.90, 3136.259
387.11, 3186.639
387.32, 3037.138
387.53, 2987.577
387.73, 3222.684
387.94, 3573.705
388.15, 3153.872
388.36, 3032.223
388.57, 3589.270
388.78, 3493.835
388.99, 3173.123
389.20, 2936.787
389.40, 4105.358
389.61, 3290.676
389.82, 3038.366
390.03, 2938.835
390.24, 3474.993
390.45, 3337.370
390.66, 3107.997
390.86, 3022.802
391.07, 3147.728
391.28, 3148.547
391.49, 2942.931
391.70, 2982.252
391.91, 3180.905
392.12, 3778.912
392.32, 2938.426
392.53, 3070.315
392.74, 3405.362
392.95, 3451.237
393.16, 2998.636
393.37, 3056.389
393.57, 3450.418
393.78, 3177.628
393.99, 3138.307
394.20, 3139.946
394.41, 3462.706
394.62, 3365.632
394.82, 3117.828
395.03, 3045.330
395.24, 3436.901
395.45, 3423.385
395.66, 3098.577
395.87, 3156.739
396.07, 3623.266
396.28, 3527.421
396.49, 3203.842
396.70, 3100.215
396.91, 3356.621
397.11, 3493.835
397.32, 2956.038
397.53, 3085.470
397.74, 3353.754
397.95, 3474.584
398.16, 3181.724
398.36, 3404.543
398.57, 3466.802
398.78, 3412.735
398.99, 3253.403
399.20, 3029.765
399.40, 3185.411
399.61, 3638.831
399.82, 3149.776
400.03, 3095.300
400.24, 3662.587
400.44, 3234.562
400.65, 3185.411
400.86, 3157.968
401.07, 3300.097
401.27, 3554.455
401.48, 3164.521
401.69, 3078.097
401.90, 3594.185
402.11, 3425.842
402.31, 3137.488
402.52, 3253.403
402.73, 3235.381
402.94, 3290.267
403.15, 3268.149
403.35, 3055.160
403.56, 3814.547
403.77, 3425.023
403.98, 3275.112
404.18, 3209.986
404.39, 3587.222
404.60, 3470.897
404.81, 3345.562
405.01, 3160.425
405.22, 3449.189
405.43, 3717.882
405.64, 3315.661
405.85, 3393.894
406.05, 3908.344
406.26, 3744.916
406.47, 3539.709
406.68, 3404.134
406.88, 4034.498
407.09, 3601.558
407.30, 3270.196
407.51, 3241.935
407.71, 3844.447
407.92, 3467.211
408.13, 3214.901
408.34, 3348.019
408.54, 3361.946
408.75, 3368.909
408.96, 3510.628
409.16, 3434.034
409.37, 3542.167
409.58, 3808.403
409.79, 3441.407
409.99, 3381.606
410.20, 3904.248
410.41, 3538.480
410.62, 3317.300
410.82, 3313.204
411.03, 3836.665
411.24, 3478.270
411.45, 3332.455
411.65, 3369.728
411.86, 3566.333
412.07, 3534.794
412.27, 3486.462
412.48, 3395.532
412.69, 3664.635
412.90, 3931.690
413.10, 3417.650
413.31, 3421.746
413.52, 3743.277
413.72, 3406.591
413.93, 3324.672
414.14, 3289.038
414.35, 3787.104
414.55, 3776.454
414.76, 3453.285
414.97, 3488.100
415.17, 3673.646
415.38, 3929.642
415.59, 3461.477
415.79, 3397.171
416.00, 4098.395
416.21, 3983.299
416.41, 3388.160
416.62, 3366.451
416.83, 4023.849
417.04, 4009.923
417.24, 3491.787
417.45, 3518.820
417.66, 3925.547
417.86, 3626.953
418.07, 3443.864
418.28, 3546.263
418.48, 4123.790
418.69, 3668.322
