SpectraSuite Data File
++++++++++++++++++++++++++++++++++++
Date: Fri Aug 19 13:19:52 CDT 2016
User: Adolfo
Dark Spectrum Present: Yes
Reference Spectrum Present: Yes
Number of Sampled Component Spectra: 1
Spectrometers: USB2+H11150
Integration Time (usec): 70000 (USB2+H11150)
Spectra Averaged: 15 (USB2+H11150)
Boxcar Smoothing: 5 (USB2+H11150)
Correct for Electrical Dark: No (USB2+H11150)
Strobe/Lamp Enabled: Yes (USB2+H11150)
Correct for Detector Non-linearity: No (USB2+H11150)
Correct for Stray Light: No (USB2+H11150)
Number of Pixels in Processed Spectrum: 2048
>>>>>Begin Processed Spectral Data<<<<<
178,23	401,471
178,61	401,471
178,99	401,471
179,37	-1746,154
179,75	286,667
180,14	2711,905
180,52	-2462,921
180,90	-1124,157
181,28	-874,091
181,66	-856,637
182,04	-705,903
182,42	-1308,784
182,80	-911,765
183,19	-702,974
183,57	-1204,294
183,95	-786,463
184,33	-1159,375
184,71	-1084,884
185,09	-852,752
185,47	-324,248
185,85	-216,825
186,24	-155,642
186,62	-137,951
187,00	-113,386
187,38	-96,130
187,76	-80,464
188,14	-70,068
188,52	-46,094
188,90	-39,677
189,28	-36,347
189,66	-33,318
190,04	-40,934
190,43	-42,144
190,81	-39,688
191,19	-34,032
191,57	-36,762
191,95	-38,684
192,33	-35,006
192,71	-29,267
193,09	-22,847
193,47	-22,806
193,85	-26,766
194,23	-18,247
194,61	-10,018
194,99	-4,012
195,37	-15,050
195,75	-5,774
196,13	-5,858
196,51	-7,427
196,89	-12,250
197,27	-16,217
197,66	-12,336
198,04	-6,541
198,42	-9,116
198,80	-20,560
199,18	-22,501
199,56	-14,142
199,94	-21,187
200,32	-30,328
200,70	-30,354
201,08	-29,420
201,46	-28,473
201,84	-32,761
202,22	-35,754
202,60	-43,665
202,98	-41,508
203,36	-41,389
203,74	-44,397
204,12	-44,457
204,50	-28,963
204,88	-23,394
205,26	-25,301
205,64	-23,989
206,01	-23,105
206,39	-18,377
206,77	-9,472
207,15	-10,519
207,53	-9,196
207,91	-6,872
208,29	-3,434
208,67	-5,580
209,05	-4,347
209,43	-4,447
209,81	-2,442
210,19	-3,562
210,57	-4,909
210,95	-7,061
211,33	-7,673
211,71	-11,426
212,09	-15,659
212,47	-15,739
212,85	-15,439
213,22	-17,188
213,60	-15,622
213,98	-17,463
214,36	-12,901
214,74	-15,192
215,12	-12,360
215,50	-5,563
215,88	-0,589
216,26	0,142
216,64	-5,115
217,02	-4,301
217,39	-3,058
217,77	0,163
218,15	-1,929
218,53	-2,568
218,91	0,419
219,29	-0,298
219,67	-0,774
220,05	-3,645
220,43	-1,359
220,80	1,288
221,18	0,377
221,56	1,395
221,94	1,565
222,32	2,363
222,70	2,028
223,08	0,339
223,45	1,542
223,83	-0,551
224,21	-0,423
224,59	-0,641
224,97	-0,892
225,35	-0,399
225,72	-0,734
226,10	-0,512
226,48	0,439
226,86	1,752
227,24	2,926
227,62	3,485
227,99	4,395
228,37	4,915
228,75	5,197
229,13	5,513
229,51	5,795
229,88	5,719
230,26	5,749
230,64	5,932
231,02	5,840
231,40	5,451
231,77	5,515
232,15	5,421
232,53	5,202
232,91	4,825
233,29	4,391
233,66	4,318
234,04	4,388
234,42	4,583
234,80	4,423
235,17	4,765
235,55	5,257
235,93	4,940
236,31	4,706
236,69	4,736
237,06	4,860
237,44	5,141
237,82	4,749
238,20	4,715
238,57	4,270
238,95	4,460
239,33	4,522
239,70	5,006
240,08	5,356
240,46	5,352
240,84	5,732
241,21	5,754
241,59	5,921
241,97	6,056
242,35	6,190
242,72	6,415
243,10	6,373
243,48	6,341
243,85	6,129
244,23	5,902
244,61	6,055
244,98	5,830
245,36	5,974
245,74	6,003
246,12	6,136
246,49	6,156
246,87	6,129
247,25	6,172
247,62	6,117
248,00	6,177
248,38	6,236
248,75	6,197
249,13	6,259
249,51	6,225
249,88	6,190
250,26	6,016
250,64	5,889
251,01	5,912
251,39	5,863
251,77	5,837
252,14	5,855
252,52	5,916
252,89	5,734
253,27	5,532
253,65	5,426
254,02	5,192
254,40	5,160
254,78	5,025
255,15	4,662
255,53	4,525
255,90	4,445
256,28	4,412
256,66	4,307
257,03	4,656
257,41	4,899
257,79	5,110
258,16	5,387
258,54	5,492
258,91	5,554
259,29	5,634
259,66	5,688
260,04	5,721
260,42	5,746
260,79	5,803
261,17	5,775
261,54	5,808
261,92	5,851
262,30	5,773
262,67	5,729
263,05	5,612
263,42	5,503
263,80	5,277
264,17	5,154
264,55	5,059
264,92	4,992
265,30	5,093
265,68	5,143
266,05	5,071
266,43	5,136
266,80	5,130
267,18	5,313
267,55	5,319
267,93	5,495
268,30	5,507
268,68	5,486
269,05	5,648
269,43	5,617
269,80	5,560
270,18	5,502
270,55	5,543
270,93	5,629
271,30	5,569
271,68	5,626
272,05	5,569
272,43	5,753
272,80	5,771
273,18	5,627
273,55	5,633
273,93	5,633
274,30	5,718
274,68	5,711
275,05	5,634
275,43	5,611
275,80	5,625
276,18	5,529
276,55	5,342
276,92	5,310
277,30	5,328
277,67	5,259
278,05	5,219
278,42	5,202
278,80	5,227
279,17	5,290
279,55	5,392
279,92	5,364
280,29	5,417
280,67	5,456
281,04	5,386
281,42	5,443
281,79	5,416
282,17	5,457
282,54	5,439
282,91	5,378
283,29	5,376
283,66	5,320
284,04	5,393
284,41	5,489
284,78	5,564
285,16	5,593
285,53	5,603
285,91	5,630
286,28	5,643
286,65	5,606
287,03	5,592
287,40	5,545
287,77	5,581
288,15	5,536
288,52	5,450
288,90	5,429
289,27	5,519
289,64	5,520
290,02	5,538
290,39	5,508
290,76	5,554
291,14	5,609
291,51	5,590
291,88	5,581
292,26	5,577
292,63	5,634
293,00	5,591
293,38	5,586
293,75	5,557
294,12	5,605
294,50	5,638
294,87	5,644
295,24	5,657
295,62	5,738
295,99	5,705
296,36	5,680
296,73	5,662
297,11	5,707
297,48	5,658
297,85	5,591
298,23	5,573
298,60	5,547
298,97	5,515
299,34	5,504
299,72	5,464
300,09	5,512
300,46	5,401
300,84	5,407
301,21	5,388
301,58	5,311
301,95	5,426
302,33	5,444
302,70	5,520
303,07	5,606
303,44	5,581
303,82	5,634
304,19	5,551
304,56	5,688
304,93	5,691
305,31	5,622
305,68	5,726
306,05	5,681
306,42	5,696
306,79	5,653
307,17	5,561
307,54	5,504
307,91	5,543
308,28	5,689
308,65	5,713
309,03	5,720
309,40	5,793
309,77	5,801
310,14	5,867
310,51	5,790
310,89	5,765
311,26	5,805
311,63	5,903
312,00	5,866
312,37	5,767
312,75	5,786
313,12	5,800
313,49	5,744
313,86	5,689
314,23	5,629
314,60	5,616
314,98	5,642
315,35	5,589
315,72	5,449
316,09	5,445
316,46	5,516
316,83	5,392
317,20	5,355
317,57	5,361
317,95	5,441
318,32	5,355
318,69	5,374
319,06	5,307
319,43	5,283
319,80	5,363
320,17	5,256
320,54	5,123
320,92	5,214
321,29	5,177
321,66	5,113
322,03	5,108
322,40	5,119
322,77	5,041
323,14	5,012
323,51	5,111
323,88	5,080
324,25	5,144
324,62	5,222
324,99	5,262
325,37	5,225
325,74	5,255
326,11	5,181
326,48	5,210
326,85	5,304
327,22	5,365
327,59	5,303
327,96	5,233
328,33	5,210
328,70	5,221
329,07	5,266
329,44	5,381
329,81	5,341
330,18	5,372
330,55	5,460
330,92	5,470
331,29	5,509
331,66	5,530
332,03	5,544
332,40	5,511
332,77	5,463
333,14	5,209
333,51	5,189
333,88	5,165
334,25	5,231
334,62	5,179
334,99	5,120
335,36	5,111
335,73	5,087
336,10	5,125
336,47	5,198
336,84	5,162
337,21	5,241
337,58	5,225
337,95	5,243
338,32	5,224
338,69	5,125
339,06	5,169
339,43	5,191
339,80	5,220
340,17	5,268
340,54	5,261
340,90	5,328
341,27	5,303
341,64	5,317
342,01	5,355
342,38	5,318
342,75	5,372
343,12	5,367
343,49	5,364
343,86	5,344
344,23	5,370
344,60	5,416
344,97	5,418
345,33	5,458
345,70	5,517
346,07	5,528
346,44	5,555
346,81	5,547
347,18	5,640
347,55	5,635
347,92	5,634
348,28	5,590
348,65	5,595
349,02	5,613
349,39	5,660
349,76	5,629
350,13	5,654
350,50	5,606
350,86	5,721
351,23	5,689
351,60	5,606
351,97	5,541
352,34	5,508
352,71	5,455
353,08	5,482
353,44	5,436
353,81	5,424
354,18	5,404
354,55	5,406
354,92	5,329
355,28	5,278
355,65	5,298
356,02	5,437
356,39	5,600
356,76	5,623
357,12	5,531
357,49	5,581
357,86	5,522
358,23	5,485
358,60	5,578
358,96	5,610
359,33	5,667
359,70	5,685
360,07	5,636
360,43	5,573
360,80	5,561
361,17	5,653
361,54	5,630
361,90	5,687
362,27	5,752
362,64	5,740
363,01	5,726
363,37	5,725
363,74	5,768
364,11	5,789
364,48	5,859
364,84	5,847
365,21	5,821
365,58	5,825
365,94	5,820
366,31	5,841
366,68	5,870
367,05	5,885
367,41	5,960
367,78	5,940
368,15	5,861
368,51	5,769
368,88	5,817
369,25	5,817
369,61	5,843
369,98	5,904
370,35	5,826
370,71	5,773
371,08	5,724
371,45	5,639
371,81	5,665
372,18	5,720
372,55	5,749
372,91	5,735
373,28	5,769
373,65	5,776
374,01	5,742
374,38	5,788
374,75	5,862
375,11	5,946
375,48	5,949
375,85	6,004
376,21	5,980
376,58	6,014
376,94	6,023
377,31	6,004
377,68	6,008
378,04	5,954
378,41	5,969
378,77	5,941
379,14	5,941
379,51	5,980
379,87	5,907
380,24	5,944
380,60	5,878
380,97	5,903
381,34	5,932
381,70	5,931
382,07	6,002
382,43	6,007
382,80	6,000
383,16	6,000
383,53	5,945
383,89	5,970
384,26	5,946
384,63	5,947
384,99	5,942
385,36	5,905
385,72	5,932
386,09	5,889
386,45	5,849
386,82	5,841
387,18	5,806
387,55	5,832
387,91	5,806
388,28	5,855
388,64	5,828
389,01	5,806
389,37	5,867
389,74	5,889
390,10	5,896
390,47	5,923
390,83	5,925
391,20	5,927
391,56	5,940
391,93	5,994
392,29	5,991
392,66	6,040
393,02	6,054
393,39	6,066
393,75	6,060
394,12	6,124
394,48	6,123
394,84	6,099
395,21	6,094
395,57	6,042
395,94	6,035
396,30	6,067
396,67	6,102
397,03	6,088
397,39	6,030
397,76	6,012
398,12	5,972
398,49	5,970
398,85	6,026
399,22	6,052
399,58	6,122
399,94	6,081
400,31	6,006
400,67	5,961
401,04	5,987
401,40	6,031
401,76	6,021
402,13	6,019
402,49	6,035
402,85	6,005
403,22	6,007
403,58	5,987
403,95	5,982
404,31	5,986
404,67	6,009
405,04	5,982
405,40	5,961
405,76	5,961
406,13	5,921
406,49	5,937
406,85	5,953
407,22	5,932
407,58	5,945
407,94	5,963
408,31	5,982
408,67	5,979
409,03	6,009
409,40	6,040
409,76	6,080
410,12	6,164
410,49	6,160
410,85	6,144
411,21	6,179
411,57	6,157
411,94	6,150
412,30	6,140
412,66	6,127
413,03	6,155
413,39	6,115
413,75	6,061
414,11	6,023
414,48	6,011
414,84	5,985
415,20	6,008
415,56	6,017
415,93	6,023
416,29	6,062
416,65	6,079
417,01	6,012
417,38	6,007
417,74	5,987
418,10	5,979
418,46	5,972
418,83	5,992
419,19	5,983
419,55	5,974
419,91	5,974
420,27	5,948
420,64	5,929
421,00	5,952
421,36	5,961
421,72	5,999
422,08	5,983
422,45	5,972
422,81	5,955
423,17	5,938
423,53	5,927
423,89	5,937
424,25	5,946
424,62	5,941
424,98	5,945
425,34	5,939
425,70	5,934
426,06	5,949
426,42	5,966
426,79	5,975
427,15	5,967
427,51	5,992
427,87	5,991
428,23	5,992
428,59	6,008
428,95	5,981
429,31	5,971
429,68	5,927
430,04	5,928
430,40	5,884
430,76	5,907
431,12	5,930
431,48	5,935
431,84	5,941
432,20	5,979
432,56	5,997
432,92	6,018
433,28	6,004
433,65	6,030
434,01	6,036
434,37	6,071
434,73	6,058
435,09	6,078
435,45	6,063
435,81	6,028
436,17	5,988
436,53	5,939
436,89	5,957
437,25	6,000
437,61	5,990
437,97	5,985
438,33	6,002
438,69	6,014
439,05	6,006
439,41	6,023
439,77	6,043
440,13	6,054
440,49	6,075
440,85	6,048
441,21	6,034
441,57	6,037
441,93	6,032
442,29	6,022
442,65	6,006
443,01	6,003
443,37	5,992
443,73	5,997
444,09	5,988
444,45	6,003
444,81	6,005
445,17	6,014
445,53	6,016
445,89	6,039
446,25	6,025
446,61	6,040
446,97	6,034
447,33	6,030
447,69	6,018
448,05	6,015
448,41	6,007
448,76	5,989
449,12	5,972
449,48	5,973
449,84	5,944
450,20	5,959
450,56	5,942
450,92	5,911
451,28	5,907
451,64	5,925
452,00	5,922
452,36	5,939
452,71	5,975
453,07	5,993
453,43	6,016
453,79	6,025
454,15	6,007
454,51	6,017
454,87	6,065
455,23	6,108
455,58	6,115
455,94	6,151
456,30	6,131
456,66	6,133
457,02	6,137
457,38	6,117
457,73	6,107
458,09	6,130
458,45	6,129
458,81	6,131
459,17	6,127
459,53	6,122
459,88	6,100
460,24	6,121
460,60	6,136
460,96	6,139
461,32	6,151
461,67	6,179
462,03	6,190
462,39	6,212
462,75	6,244
463,10	6,248
463,46	6,259
463,82	6,301
464,18	6,350
464,54	6,380
464,89	6,409
465,25	6,438
465,61	6,474
465,97	6,506
466,32	6,543
466,68	6,551
467,04	6,582
467,39	6,632
467,75	6,651
468,11	6,640
468,47	6,650
468,82	6,659
469,18	6,671
469,54	6,661
469,90	6,650
470,25	6,649
470,61	6,648
470,97	6,642
471,32	6,634
471,68	6,641
472,04	6,664
472,39	6,659
472,75	6,657
473,11	6,672
473,46	6,661
473,82	6,674
474,18	6,671
474,53	6,654
474,89	6,640
475,25	6,642
475,60	6,612
475,96	6,583
476,32	6,576
476,67	6,564
477,03	6,511
477,38	6,515
477,74	6,514
478,10	6,502
478,45	6,491
478,81	6,494
479,17	6,456
479,52	6,435
479,88	6,416
480,23	6,387
480,59	6,371
480,95	6,378
481,30	6,360
481,66	6,318
482,01	6,280
482,37	6,268
482,72	6,268
483,08	6,286
483,44	6,292
483,79	6,292
484,15	6,311
484,50	6,316
484,86	6,314
485,21	6,320
485,57	6,330
485,92	6,352
486,28	6,384
486,63	6,408
486,99	6,416
487,34	6,439
487,70	6,470
488,05	6,481
488,41	6,499
488,77	6,521
489,12	6,556
489,48	6,602
489,83	6,643
490,18	6,678
490,54	6,707
490,89	6,741
491,25	6,788
491,60	6,798
491,96	6,819
492,31	6,834
492,67	6,874
493,02	6,909
493,38	6,936
493,73	6,961
494,09	7,009
494,44	7,064
494,80	7,133
495,15	7,168
495,50	7,238
495,86	7,284
496,21	7,374
496,57	7,410
496,92	7,444
497,27	7,475
497,63	7,528
497,98	7,570
498,34	7,619
498,69	7,639
499,04	7,693
499,40	7,747
499,75	7,793
500,11	7,833
500,46	7,887
500,81	7,922
501,17	7,981
501,52	8,035
501,87	8,070
502,23	8,123
502,58	8,195
502,94	8,223
503,29	8,248
503,64	8,299
504,00	8,331
504,35	8,351
504,70	8,392
505,06	8,414
505,41	8,453
505,76	8,498
506,12	8,497
506,47	8,522
506,82	8,555
507,17	8,597
507,53	8,627
507,88	8,655
508,23	8,678
508,59	8,708
508,94	8,727
509,29	8,723
509,64	8,733
510,00	8,755
510,35	8,766
510,70	8,780
511,06	8,796
511,41	8,797
511,76	8,799
512,11	8,813
512,47	8,820
512,82	8,857
513,17	8,914
513,52	8,899
513,87	8,916
514,23	8,938
514,58	8,978
514,93	9,005
515,28	9,041
515,64	9,062
515,99	9,082
516,34	9,097
516,69	9,093
517,04	9,101
517,40	9,142
517,75	9,154
518,10	9,164
518,45	9,162
518,80	9,162
519,15	9,162
519,51	9,174
519,86	9,183
520,21	9,204
520,56	9,215
520,91	9,218
521,26	9,243
521,61	9,264
521,97	9,291
522,32	9,307
522,67	9,317
523,02	9,333
523,37	9,360
523,72	9,383
524,07	9,392
524,42	9,403
524,78	9,393
525,13	9,399
525,48	9,412
525,83	9,415
526,18	9,411
526,53	9,420
526,88	9,432
527,23	9,438
527,58	9,445
527,93	9,458
528,28	9,474
528,63	9,504
528,99	9,513
529,34	9,522
529,69	9,535
530,04	9,560
530,39	9,574
530,74	9,588
531,09	9,602
531,44	9,630
531,79	9,647
532,14	9,684
532,49	9,711
532,84	9,732
533,19	9,749
533,54	9,753
533,89	9,756
534,24	9,783
534,59	9,799
534,94	9,823
535,29	9,832
535,64	9,852
535,99	9,864
536,34	9,856
536,69	9,861
537,04	9,876
537,39	9,900
537,74	9,929
538,09	9,943
538,44	9,962
538,79	9,968
539,13	10,005
539,48	10,029
539,83	10,035
540,18	10,045
540,53	10,048
540,88	10,047
541,23	10,057
541,58	10,061
541,93	10,066
542,28	10,084
542,63	10,108
542,98	10,100
543,32	10,102
543,67	10,104
544,02	10,126
544,37	10,142
544,72	10,163
545,07	10,170
545,42	10,192
545,77	10,209
546,11	10,216
546,46	10,239
546,81	10,284
547,16	10,320
547,51	10,356
547,86	10,357
548,20	10,386
548,55	10,408
548,90	10,439
549,25	10,449
549,60	10,474
549,95	10,497
550,29	10,497
550,64	10,524
550,99	10,536
551,34	10,535
551,69	10,547
552,03	10,562
552,38	10,609
552,73	10,625
553,08	10,657
553,43	10,671
553,77	10,693
554,12	10,713
554,47	10,684
554,82	10,677
555,16	10,715
555,51	10,765
555,86	10,778
556,21	10,775
556,55	10,812
556,90	10,819
557,25	10,842
557,59	10,872
557,94	10,885
558,29	10,923
558,64	10,944
558,98	10,965
559,33	10,959
559,68	10,972
560,02	10,974
560,37	10,945
560,72	10,957
561,06	10,956
561,41	10,961
561,76	10,964
562,10	11,015
562,45	11,030
562,80	11,021
563,14	11,031
563,49	11,049
563,84	11,062
564,18	11,081
564,53	11,084
564,88	11,110
565,22	11,114
565,57	11,152
565,92	11,145
566,26	11,166
566,61	11,180
566,95	11,202
567,30	11,209
567,65	11,226
567,99	11,243
568,34	11,276
568,68	11,278
569,03	11,289
569,38	11,273
569,72	11,275
570,07	11,294
570,41	11,316
570,76	11,325
571,10	11,338
571,45	11,326
571,80	11,348
572,14	11,352
572,49	11,355
572,83	11,360
573,18	11,365
573,52	11,392
573,87	11,401
574,21	11,402
574,56	11,425
574,90	11,432
575,25	11,471
575,59	11,483
575,94	11,490
576,28	11,517
576,63	11,537
576,97	11,574
577,32	11,595
577,66	11,603
578,01	11,603
578,35	11,597
578,70	11,627
579,04	11,647
579,39	11,653
579,73	11,655
580,07	11,681
580,42	11,723
580,76	11,728
581,11	11,716
581,45	11,737
581,80	11,807
582,14	11,856
582,49	11,886
582,83	11,881
583,17	11,922
583,52	11,950
583,86	11,941
584,21	11,937
584,55	11,970
584,89	12,004
585,24	12,041
585,58	12,036
585,92	12,014
586,27	12,029
586,61	12,067
586,96	12,046
587,30	12,047
587,64	12,058
587,99	12,051
588,33	12,079
588,67	12,067
589,02	12,053
589,36	12,036
589,70	12,064
590,05	12,092
590,39	12,111
590,73	12,155
591,08	12,156
591,42	12,170
591,76	12,209
592,11	12,209
592,45	12,221
592,79	12,239
593,13	12,278
593,48	12,272
593,82	12,261
594,16	12,265
594,51	12,265
594,85	12,305
595,19	12,318
595,53	12,326
595,88	12,346
596,22	12,359
596,56	12,369
596,90	12,372
597,25	12,413
597,59	12,427
597,93	12,442
598,27	12,476
598,61	12,453
598,96	12,472
599,30	12,510
599,64	12,525
599,98	12,557
600,32	12,574
600,67	12,579
601,01	12,561
601,35	12,536
601,69	12,527
602,03	12,521
602,38	12,576
602,72	12,572
603,06	12,572
603,40	12,549
603,74	12,553
604,08	12,575
604,42	12,596
604,77	12,647
605,11	12,677
605,45	12,704
605,79	12,726
606,13	12,761
606,47	12,786
606,81	12,780
607,15	12,832
607,50	12,850
607,84	12,867
608,18	12,878
608,52	12,822
608,86	12,848
609,20	12,896
609,54	12,911
609,88	12,903
610,22	12,931
610,56	12,963
610,90	12,967
611,24	13,002
611,58	12,998
611,93	13,042
612,27	13,123
612,61	13,135
612,95	13,126
613,29	13,095
613,63	13,099
613,97	13,137
614,31	13,150
614,65	13,144
614,99	13,115
615,33	13,141
615,67	13,166
616,01	13,182
616,35	13,173
616,69	13,158
617,03	13,147
617,37	13,179
617,71	13,161
618,05	13,188
618,39	13,225
618,73	13,255
619,06	13,251
619,40	13,195
619,74	13,191
620,08	13,207
620,42	13,205
620,76	13,254
621,10	13,246
621,44	13,241
621,78	13,228
622,12	13,215
622,46	13,255
622,80	13,332
623,14	13,376
623,47	13,395
623,81	13,400
624,15	13,401
624,49	13,441
624,83	13,488
625,17	13,526
625,51	13,557
625,85	13,578
626,18	13,580
626,52	13,528
626,86	13,495
627,20	13,509
627,54	13,544
627,88	13,590
628,22	13,600
628,55	13,616
628,89	13,643
629,23	13,636
629,57	13,658
629,91	13,671
630,24	13,725
630,58	13,795
630,92	13,791
631,26	13,774
631,60	13,770
631,93	13,825
632,27	13,811
632,61	13,777
632,95	13,783
633,29	13,795
633,62	13,807
633,96	13,794
634,30	13,796
634,64	13,821
634,97	13,837
635,31	13,872
635,65	13,879
635,99	13,866
636,32	13,904
636,66	13,921
637,00	13,947
637,33	13,970
637,67	14,010
638,01	14,046
638,34	14,014
638,68	14,066
639,02	14,065
639,36	14,021
639,69	14,088
640,03	14,109
640,37	14,128
640,70	14,188
641,04	14,187
641,38	14,187
641,71	14,172
642,05	14,225
642,39	14,220
642,72	14,230
643,06	14,245
643,39	14,232
643,73	14,227
644,07	14,231
644,40	14,167
644,74	14,169
645,08	14,150
645,41	14,178
645,75	14,202
646,08	14,248
646,42	14,322
646,75	14,356
647,09	14,386
647,43	14,394
647,76	14,452
648,10	14,469
648,43	14,465
648,77	14,498
649,10	14,531
649,44	14,575
649,78	14,576
650,11	14,526
650,45	14,563
650,78	14,575
651,12	14,582
651,45	14,589
651,79	14,606
652,12	14,615
652,46	14,674
652,79	14,677
653,13	14,636
653,46	14,684
653,80	14,696
654,13	14,704
654,47	14,690
654,80	14,763
655,14	14,778
655,47	14,823
655,81	14,808
656,14	14,794
656,47	14,796
656,81	14,827
657,14	14,851
657,48	14,859
657,81	14,842
658,15	14,918
658,48	14,924
658,82	14,937
659,15	14,942
659,48	15,004
659,82	15,025
660,15	15,067
660,49	15,068
660,82	15,074
661,15	15,139
